%%             60.00000             0.00000    0             0.27000
% LAB  survey ------------------
% wanted position:  l, b, RA, DEC, and interpolated  NH
% 60.00 ;   0.00 ; 295.98 ;  23.89 ;  0.115E+23
% nearest position: l, b, RA, DEC, and observed NH
% 60.00 ;   0.00 ; 295.98 ;  23.89 ;  0.115E+23
% GASS III survey --------------
% NH - median within 6 arcmin radius   0.00    
% NH - mean within specified beam      0.00    
%%GASS      0  datapoints: v_lsr [km/s] and T_B [K] for beam weighted average and median within 6 arcmin
%%LAB     777  datapoints: v_lsr [km/s] and T_B [K]
    -399.82     -0.16
    -398.79     -0.01
    -397.76      0.00
    -396.72      0.02
    -395.69      0.10
    -394.66      0.11
    -393.63      0.03
    -392.60      0.07
    -391.57      0.07
    -390.54     -0.03
    -389.51     -0.09
    -388.48      0.04
    -387.45     -0.02
    -386.42      0.04
    -385.39     -0.07
    -384.36     -0.09
    -383.33     -0.09
    -382.30      0.05
    -381.27      0.02
    -380.24     -0.07
    -379.21      0.07
    -378.18     -0.02
    -377.15      0.07
    -376.12     -0.09
    -375.09     -0.01
    -374.05     -0.15
    -373.02     -0.12
    -371.99      0.00
    -370.96     -0.05
    -369.93     -0.06
    -368.90     -0.06
    -367.87     -0.08
    -366.84     -0.16
    -365.81     -0.04
    -364.78      0.03
    -363.75      0.03
    -362.72     -0.11
    -361.69      0.11
    -360.66      0.03
    -359.63     -0.05
    -358.60      0.14
    -357.57     -0.17
    -356.54     -0.06
    -355.51      0.05
    -354.48      0.12
    -353.45      0.05
    -352.42      0.04
    -351.38      0.10
    -350.35     -0.18
    -349.32      0.04
    -348.29      0.04
    -347.26      0.10
    -346.23     -0.19
    -345.20      0.01
    -344.17      0.06
    -343.14      0.00
    -342.11      0.19
    -341.08     -0.01
    -340.05     -0.02
    -339.02      0.13
    -337.99      0.04
    -336.96      0.15
    -335.93     -0.06
    -334.90     -0.04
    -333.87     -0.00
    -332.84     -0.00
    -331.81      0.01
    -330.78     -0.09
    -329.75      0.02
    -328.71      0.08
    -327.68      0.09
    -326.65      0.02
    -325.62     -0.04
    -324.59      0.11
    -323.56      0.03
    -322.53      0.04
    -321.50      0.06
    -320.47      0.02
    -319.44     -0.04
    -318.41     -0.03
    -317.38      0.05
    -316.35     -0.00
    -315.32      0.08
    -314.29      0.06
    -313.26      0.02
    -312.23     -0.10
    -311.20      0.08
    -310.17     -0.06
    -309.14     -0.04
    -308.11     -0.15
    -307.08     -0.07
    -306.04      0.06
    -305.01     -0.01
    -303.98      0.03
    -302.95     -0.01
    -301.92     -0.06
    -300.89      0.12
    -299.86      0.06
    -298.83     -0.08
    -297.80     -0.04
    -296.77     -0.03
    -295.74      0.11
    -294.71      0.12
    -293.68     -0.04
    -292.65     -0.11
    -291.62     -0.05
    -290.59      0.04
    -289.56     -0.03
    -288.53      0.01
    -287.50     -0.04
    -286.47      0.11
    -285.44     -0.09
    -284.41     -0.04
    -283.37     -0.02
    -282.34     -0.03
    -281.31      0.08
    -280.28      0.21
    -279.25     -0.08
    -278.22     -0.12
    -277.19      0.04
    -276.16     -0.06
    -275.13      0.01
    -274.10      0.10
    -273.07      0.08
    -272.04      0.05
    -271.01      0.13
    -269.98     -0.08
    -268.95     -0.01
    -267.92      0.10
    -266.89     -0.18
    -265.86      0.09
    -264.83      0.16
    -263.80     -0.10
    -262.77      0.02
    -261.74     -0.06
    -260.70     -0.12
    -259.67      0.03
    -258.64     -0.16
    -257.61     -0.16
    -256.58     -0.14
    -255.55      0.04
    -254.52     -0.06
    -253.49     -0.03
    -252.46     -0.06
    -251.43      0.17
    -250.40     -0.02
    -249.37     -0.00
    -248.34      0.14
    -247.31      0.00
    -246.28     -0.01
    -245.25     -0.03
    -244.22     -0.02
    -243.19      0.17
    -242.16     -0.17
    -241.13     -0.00
    -240.10     -0.04
    -239.07      0.02
    -238.03      0.13
    -237.00     -0.07
    -235.97      0.01
    -234.94      0.09
    -233.91     -0.03
    -232.88      0.22
    -231.85      0.04
    -230.82      0.03
    -229.79     -0.19
    -228.76     -0.06
    -227.73     -0.03
    -226.70      0.03
    -225.67     -0.06
    -224.64      0.06
    -223.61     -0.10
    -222.58      0.01
    -221.55      0.01
    -220.52      0.14
    -219.49      0.10
    -218.46      0.04
    -217.43     -0.08
    -216.40      0.06
    -215.36     -0.03
    -214.33      0.03
    -213.30     -0.05
    -212.27     -0.05
    -211.24      0.08
    -210.21      0.01
    -209.18     -0.04
    -208.15     -0.07
    -207.12     -0.12
    -206.09      0.05
    -205.06     -0.02
    -204.03      0.20
    -203.00      0.20
    -201.97     -0.01
    -200.94     -0.06
    -199.91     -0.01
    -198.88      0.09
    -197.85      0.05
    -196.82      0.13
    -195.79     -0.05
    -194.76     -0.04
    -193.73      0.00
    -192.69      0.16
    -191.66      0.03
    -190.63     -0.08
    -189.60     -0.15
    -188.57     -0.05
    -187.54      0.14
    -186.51      0.02
    -185.48     -0.12
    -184.45      0.03
    -183.42     -0.11
    -182.39      0.20
    -181.36      0.08
    -180.33      0.04
    -179.30      0.03
    -178.27      0.10
    -177.24      0.05
    -176.21     -0.02
    -175.18     -0.08
    -174.15     -0.17
    -173.12      0.14
    -172.09     -0.02
    -171.06      0.02
    -170.02     -0.01
    -168.99     -0.18
    -167.96     -0.12
    -166.93      0.14
    -165.90      0.08
    -164.87      0.02
    -163.84      0.05
    -162.81     -0.07
    -161.78      0.15
    -160.75      0.10
    -159.72      0.08
    -158.69      0.07
    -157.66      0.01
    -156.63      0.10
    -155.60      0.10
    -154.57     -0.17
    -153.54      0.16
    -152.51      0.08
    -151.48      0.14
    -150.45     -0.04
    -149.42      0.08
    -148.39     -0.07
    -147.35      0.19
    -146.32      0.11
    -145.29     -0.06
    -144.26      0.09
    -143.23      0.21
    -142.20      0.15
    -141.17     -0.05
    -140.14      0.00
    -139.11     -0.06
    -138.08      0.12
    -137.05      0.11
    -136.02     -0.16
    -134.99      0.09
    -133.96      0.06
    -132.93     -0.01
    -131.90      0.11
    -130.87     -0.00
    -129.84      0.17
    -128.81     -0.17
    -127.78      0.08
    -126.75     -0.05
    -125.72      0.00
    -124.68      0.05
    -123.65      0.13
    -122.62      0.04
    -121.59     -0.06
    -120.56      0.17
    -119.53      0.01
    -118.50     -0.08
    -117.47     -0.15
    -116.44     -0.04
    -115.41     -0.04
    -114.38      0.19
    -113.35      0.25
    -112.32      0.05
    -111.29      0.13
    -110.26      0.09
    -109.23      0.12
    -108.20      0.17
    -107.17      0.25
    -106.14      0.16
    -105.11      0.19
    -104.08      0.24
    -103.05      0.23
    -102.01      0.29
    -100.98      0.48
     -99.95      0.44
     -98.92      0.46
     -97.89      0.60
     -96.86      0.77
     -95.83      0.76
     -94.80      1.14
     -93.77      1.34
     -92.74      1.35
     -91.71      1.83
     -90.68      2.10
     -89.65      2.47
     -88.62      2.84
     -87.59      3.33
     -86.56      3.87
     -85.53      4.18
     -84.50      4.86
     -83.47      5.39
     -82.44      6.05
     -81.41      7.24
     -80.38      8.13
     -79.34      9.93
     -78.31     11.55
     -77.28     13.13
     -76.25     14.28
     -75.22     14.93
     -74.19     15.34
     -73.16     15.74
     -72.13     16.19
     -71.10     16.84
     -70.07     17.81
     -69.04     19.47
     -68.01     21.75
     -66.98     24.89
     -65.95     29.84
     -64.92     35.45
     -63.89     41.24
     -62.86     46.52
     -61.83     50.55
     -60.80     53.00
     -59.77     54.30
     -58.74     53.17
     -57.71     50.70
     -56.67     46.63
     -55.64     41.88
     -54.61     37.39
     -53.58     34.21
     -52.55     31.99
     -51.52     31.15
     -50.49     31.42
     -49.46     32.19
     -48.43     31.15
     -47.40     26.61
     -46.37     20.18
     -45.34     13.81
     -44.31      9.60
     -43.28      7.70
     -42.25      6.24
     -41.22      5.70
     -40.19      5.65
     -39.16      5.71
     -38.13      5.82
     -37.10      6.28
     -36.07      6.62
     -35.04      7.33
     -34.00      8.45
     -32.97      9.34
     -31.94     10.60
     -30.91     11.96
     -29.88     12.81
     -28.85     13.94
     -27.82     15.15
     -26.79     16.88
     -25.76     19.25
     -24.73     22.44
     -23.70     26.23
     -22.67     30.84
     -21.64     36.49
     -20.61     42.46
     -19.58     48.65
     -18.55     56.15
     -17.52     64.18
     -16.49     71.11
     -15.46     76.64
     -14.43     80.76
     -13.40     82.12
     -12.37     82.83
     -11.34     82.55
     -10.30     82.66
      -9.27     82.89
      -8.24     82.99
      -7.21     82.46
      -6.18     83.42
      -5.15     85.24
      -4.12     87.56
      -3.09     90.58
      -2.06     92.17
      -1.03     93.05
       0.00     92.38
       1.03     89.43
       2.06     87.07
       3.09     88.88
       4.12     91.78
       5.15     92.37
       6.18     85.54
       7.21     78.46
       8.24     78.36
       9.27     79.45
      10.30     75.50
      11.34     70.39
      12.37     64.86
      13.40     60.97
      14.43     60.44
      15.46     62.60
      16.49     65.87
      17.52     67.89
      18.55     68.57
      19.58     67.85
      20.61     66.55
      21.64     67.78
      22.67     70.00
      23.70     73.61
      24.73     78.19
      25.76     83.09
      26.79     86.02
      27.82     88.73
      28.85     91.86
      29.88     91.42
      30.91     89.78
      31.94     85.71
      32.97     79.75
      34.01     72.82
      35.04     66.00
      36.07     59.55
      37.10     54.56
      38.13     49.89
      39.16     46.27
      40.19     42.70
      41.22     39.63
      42.25     35.80
      43.28     32.17
      44.31     27.69
      45.34     23.72
      46.37     19.28
      47.40     14.89
      48.43     11.20
      49.46      8.73
      50.49      6.81
      51.52      5.21
      52.55      4.11
      53.58      3.52
      54.61      2.75
      55.64      2.27
      56.67      1.72
      57.71      1.53
      58.74      1.33
      59.77      1.23
      60.80      0.82
      61.83      0.81
      62.86      0.59
      63.89      0.58
      64.92      0.39
      65.95      0.45
      66.98      0.34
      68.01      0.32
      69.04      0.35
      70.07      0.16
      71.10      0.12
      72.13      0.10
      73.16      0.15
      74.19      0.22
      75.22      0.12
      76.25      0.20
      77.28      0.18
      78.31      0.10
      79.34     -0.06
      80.38      0.06
      81.41      0.01
      82.44      0.19
      83.47      0.13
      84.50      0.11
      85.53      0.11
      86.56      0.14
      87.59     -0.08
      88.62     -0.02
      89.65     -0.14
      90.68     -0.12
      91.71      0.11
      92.74      0.13
      93.77     -0.07
      94.80      0.13
      95.83     -0.06
      96.86     -0.04
      97.89      0.13
      98.92      0.12
      99.95     -0.08
     100.98      0.09
     102.01     -0.01
     103.05      0.01
     104.08      0.02
     105.11      0.12
     106.14      0.00
     107.17      0.24
     108.20     -0.03
     109.23      0.15
     110.26     -0.03
     111.29      0.34
     112.32     -0.01
     113.35     -0.12
     114.38     -0.05
     115.41      0.12
     116.44     -0.01
     117.47      0.15
     118.50     -0.14
     119.53      0.16
     120.56     -0.07
     121.59      0.11
     122.62     -0.01
     123.65      0.23
     124.68     -0.10
     125.72      0.12
     126.75     -0.06
     127.78      0.18
     128.81     -0.07
     129.84      0.15
     130.87      0.01
     131.90     -0.04
     132.93     -0.05
     133.96     -0.12
     134.99     -0.06
     136.02      0.14
     137.05     -0.03
     138.08      0.01
     139.11     -0.05
     140.14      0.10
     141.17      0.00
     142.20      0.09
     143.23      0.10
     144.26      0.20
     145.29      0.03
     146.32      0.01
     147.35     -0.07
     148.39      0.04
     149.42      0.02
     150.45      0.11
     151.48     -0.04
     152.51     -0.03
     153.54      0.04
     154.57      0.02
     155.60      0.04
     156.63      0.11
     157.66     -0.03
     158.69     -0.02
     159.72     -0.11
     160.75      0.07
     161.78      0.07
     162.81     -0.07
     163.84     -0.04
     164.87      0.06
     165.90      0.03
     166.93     -0.10
     167.96     -0.08
     168.99      0.08
     170.02      0.04
     171.06      0.27
     172.09     -0.04
     173.12     -0.00
     174.15     -0.10
     175.18     -0.17
     176.21     -0.11
     177.24      0.04
     178.27      0.01
     179.30     -0.03
     180.33      0.13
     181.36     -0.14
     182.39      0.08
     183.42      0.06
     184.45     -0.02
     185.48      0.01
     186.51     -0.03
     187.54      0.05
     188.57     -0.05
     189.60      0.03
     190.63     -0.04
     191.66      0.10
     192.69     -0.02
     193.73      0.04
     194.76     -0.09
     195.79     -0.08
     196.82     -0.02
     197.85      0.14
     198.88      0.02
     199.91     -0.04
     200.94     -0.00
     201.97      0.08
     203.00     -0.01
     204.03      0.03
     205.06     -0.03
     206.09     -0.09
     207.12     -0.02
     208.15     -0.03
     209.18      0.10
     210.21     -0.08
     211.24     -0.06
     212.27      0.07
     213.30     -0.06
     214.33      0.13
     215.36     -0.15
     216.40      0.06
     217.43     -0.08
     218.46     -0.00
     219.49     -0.05
     220.52     -0.04
     221.55      0.02
     222.58     -0.06
     223.61     -0.05
     224.64      0.03
     225.67     -0.07
     226.70      0.12
     227.73      0.08
     228.76      0.10
     229.79      0.03
     230.82      0.05
     231.85     -0.08
     232.88      0.01
     233.91      0.07
     234.94      0.15
     235.97      0.07
     237.00     -0.16
     238.03      0.09
     239.07      0.08
     240.10     -0.14
     241.13      0.06
     242.16     -0.06
     243.19     -0.12
     244.22      0.03
     245.25      0.11
     246.28      0.01
     247.31      0.03
     248.34     -0.12
     249.37      0.04
     250.40     -0.08
     251.43      0.15
     252.46     -0.11
     253.49      0.04
     254.52      0.05
     255.55      0.09
     256.58     -0.17
     257.61      0.11
     258.64     -0.03
     259.67      0.04
     260.70      0.15
     261.74      0.08
     262.77      0.04
     263.80      0.07
     264.83     -0.03
     265.86      0.06
     266.89      0.00
     267.92      0.08
     268.95     -0.02
     269.98      0.05
     271.01     -0.08
     272.04      0.16
     273.07     -0.08
     274.10     -0.06
     275.13     -0.21
     276.16      0.13
     277.19      0.08
     278.22     -0.18
     279.25     -0.08
     280.28     -0.04
     281.31     -0.13
     282.34     -0.08
     283.37      0.04
     284.41     -0.04
     285.44     -0.01
     286.47     -0.18
     287.50      0.10
     288.53      0.02
     289.56      0.03
     290.59     -0.08
     291.62      0.01
     292.65     -0.07
     293.68      0.05
     294.71      0.02
     295.74      0.06
     296.77     -0.01
     297.80      0.01
     298.83      0.10
     299.86      0.08
     300.89      0.22
     301.92      0.11
     302.95      0.00
     303.98     -0.07
     305.01      0.07
     306.04     -0.02
     307.08      0.09
     308.11     -0.02
     309.14      0.11
     310.17     -0.11
     311.20      0.12
     312.23     -0.09
     313.26      0.05
     314.29     -0.19
     315.32      0.01
     316.35      0.05
     317.38      0.06
     318.41     -0.12
     319.44     -0.04
     320.47     -0.04
     321.50     -0.21
     322.53      0.19
     323.56      0.06
     324.59     -0.16
     325.62      0.11
     326.65     -0.13
     327.68      0.04
     328.71     -0.05
     329.75     -0.07
     330.78     -0.09
     331.81     -0.02
     332.84     -0.09
     333.87      0.02
     334.90     -0.07
     335.93     -0.05
     336.96     -0.13
     337.99      0.04
     339.02     -0.07
     340.05      0.03
     341.08     -0.04
     342.11     -0.09
     343.14      0.00
     344.17     -0.04
     345.20     -0.02
     346.23     -0.07
     347.26     -0.05
     348.29     -0.09
     349.32      0.17
     350.35      0.03
     351.38      0.07
     352.42     -0.01
     353.45     -0.09
     354.48     -0.05
     355.51     -0.05
     356.54      0.09
     357.57     -0.00
     358.60     -0.01
     359.63      0.14
     360.66      0.24
     361.69      0.01
     362.72     -0.01
     363.75     -0.05
     364.78     -0.22
     365.81      0.10
     366.84      0.08
     367.87     -0.00
     368.90     -0.11
     369.93      0.15
     370.96      0.14
     371.99     -0.04
     373.02      0.01
     374.05     -0.00
     375.09      0.07
     376.12     -0.03
     377.15      0.02
     378.18     -0.11
     379.21      0.19
     380.24      0.02
     381.27     -0.09
     382.30      0.04
     383.33     -0.07
     384.36     -0.00
     385.39      0.02
     386.42     -0.08
     387.45      0.04
     388.48      0.00
     389.51     -0.04
     390.54      0.16
     391.57     -0.03
     392.60      0.09
     393.63      0.09
     394.66     -0.05
     395.69      0.12
     396.72     -0.19
     397.76      0.00
     398.79     -0.00
     399.82     -0.06
   
