%%             45.00000             0.00000    0             0.27000
% LAB  survey ------------------
% wanted position:  l, b, RA, DEC, and interpolated  NH
% 45.00 ;   0.00 ; 288.43 ;  10.72 ;  0.149E+23
% nearest position: l, b, RA, DEC, and observed NH
% 45.00 ;   0.00 ; 288.43 ;  10.72 ;  0.149E+23
% GASS III survey --------------
% NH - median within 6 arcmin radius   0.00    
% NH - mean within specified beam      0.00    
%%GASS      0  datapoints: v_lsr [km/s] and T_B [K] for beam weighted average and median within 6 arcmin
%%LAB     777  datapoints: v_lsr [km/s] and T_B [K]
    -399.84     -0.01
    -398.81      0.07
    -397.78     -0.04
    -396.75     -0.05
    -395.72     -0.10
    -394.68      0.15
    -393.65     -0.09
    -392.62      0.09
    -391.59      0.03
    -390.56      0.07
    -389.53     -0.06
    -388.50     -0.13
    -387.47      0.04
    -386.44      0.07
    -385.41      0.02
    -384.38      0.02
    -383.35      0.09
    -382.32     -0.08
    -381.29     -0.06
    -380.26      0.02
    -379.23     -0.00
    -378.20      0.09
    -377.17     -0.05
    -376.14     -0.05
    -375.10     -0.07
    -374.07      0.01
    -373.04      0.04
    -372.01      0.07
    -370.98      0.29
    -369.95     -0.07
    -368.92      0.13
    -367.89      0.10
    -366.86     -0.01
    -365.83     -0.06
    -364.80      0.05
    -363.77      0.09
    -362.74     -0.11
    -361.71     -0.07
    -360.68     -0.08
    -359.65     -0.09
    -358.62      0.03
    -357.59     -0.25
    -356.56      0.17
    -355.53     -0.07
    -354.49      0.11
    -353.46      0.01
    -352.43     -0.07
    -351.40     -0.11
    -350.37      0.12
    -349.34     -0.00
    -348.31     -0.02
    -347.28     -0.03
    -346.25      0.04
    -345.22      0.00
    -344.19     -0.11
    -343.16      0.12
    -342.13      0.07
    -341.10     -0.02
    -340.07     -0.07
    -339.04     -0.07
    -338.01     -0.09
    -336.98     -0.09
    -335.95      0.07
    -334.92      0.01
    -333.88     -0.02
    -332.85     -0.07
    -331.82      0.03
    -330.79     -0.09
    -329.76      0.03
    -328.73      0.16
    -327.70      0.05
    -326.67      0.11
    -325.64     -0.13
    -324.61     -0.05
    -323.58      0.09
    -322.55      0.21
    -321.52     -0.05
    -320.49     -0.10
    -319.46      0.01
    -318.43     -0.01
    -317.40      0.08
    -316.37     -0.11
    -315.34      0.11
    -314.30      0.01
    -313.27     -0.00
    -312.24      0.09
    -311.21     -0.02
    -310.18     -0.06
    -309.15      0.04
    -308.12      0.09
    -307.09      0.06
    -306.06     -0.02
    -305.03     -0.02
    -304.00     -0.27
    -302.97     -0.12
    -301.94      0.26
    -300.91      0.03
    -299.88     -0.08
    -298.85      0.19
    -297.82     -0.11
    -296.79      0.13
    -295.76      0.00
    -294.73     -0.08
    -293.69     -0.01
    -292.66      0.02
    -291.63      0.11
    -290.60     -0.10
    -289.57     -0.03
    -288.54     -0.12
    -287.51      0.18
    -286.48     -0.04
    -285.45     -0.08
    -284.42      0.14
    -283.39     -0.10
    -282.36      0.05
    -281.33      0.07
    -280.30      0.08
    -279.27      0.10
    -278.24     -0.16
    -277.21     -0.00
    -276.18      0.11
    -275.15      0.07
    -274.12     -0.03
    -273.08     -0.15
    -272.05      0.16
    -271.02     -0.06
    -269.99      0.18
    -268.96      0.05
    -267.93     -0.03
    -266.90     -0.05
    -265.87     -0.11
    -264.84      0.09
    -263.81     -0.07
    -262.78      0.03
    -261.75      0.08
    -260.72     -0.07
    -259.69     -0.04
    -258.66      0.10
    -257.63      0.09
    -256.60     -0.00
    -255.57     -0.04
    -254.54      0.02
    -253.50      0.00
    -252.47      0.14
    -251.44      0.01
    -250.41     -0.06
    -249.38     -0.04
    -248.35      0.17
    -247.32     -0.02
    -246.29     -0.27
    -245.26      0.09
    -244.23     -0.05
    -243.20      0.14
    -242.17     -0.05
    -241.14     -0.01
    -240.11     -0.03
    -239.08     -0.08
    -238.05     -0.17
    -237.02     -0.02
    -235.99      0.00
    -234.96      0.00
    -233.93     -0.16
    -232.89      0.01
    -231.86      0.13
    -230.83      0.02
    -229.80     -0.22
    -228.77     -0.20
    -227.74      0.02
    -226.71      0.06
    -225.68      0.09
    -224.65      0.07
    -223.62      0.09
    -222.59      0.16
    -221.56      0.08
    -220.53     -0.04
    -219.50     -0.19
    -218.47     -0.00
    -217.44      0.03
    -216.41     -0.13
    -215.38     -0.04
    -214.35      0.09
    -213.32      0.08
    -212.28      0.02
    -211.25      0.05
    -210.22     -0.04
    -209.19     -0.20
    -208.16     -0.21
    -207.13     -0.01
    -206.10     -0.02
    -205.07     -0.08
    -204.04     -0.02
    -203.01     -0.09
    -201.98      0.08
    -200.95     -0.03
    -199.92      0.00
    -198.89      0.04
    -197.86      0.17
    -196.83     -0.22
    -195.80      0.16
    -194.77     -0.02
    -193.74      0.06
    -192.71      0.04
    -191.67      0.02
    -190.64      0.00
    -189.61      0.31
    -188.58      0.01
    -187.55      0.17
    -186.52      0.08
    -185.49     -0.09
    -184.46      0.05
    -183.43      0.08
    -182.40     -0.16
    -181.37      0.22
    -180.34     -0.08
    -179.31      0.05
    -178.28     -0.11
    -177.25      0.00
    -176.22     -0.04
    -175.19     -0.02
    -174.16      0.06
    -173.13      0.10
    -172.09      0.20
    -171.06      0.09
    -170.03     -0.15
    -169.00     -0.08
    -167.97     -0.12
    -166.94      0.05
    -165.91      0.07
    -164.88      0.16
    -163.85      0.06
    -162.82      0.14
    -161.79      0.03
    -160.76     -0.00
    -159.73     -0.16
    -158.70      0.01
    -157.67     -0.14
    -156.64      0.07
    -155.61      0.04
    -154.58      0.00
    -153.55      0.08
    -152.52      0.07
    -151.48     -0.01
    -150.45     -0.04
    -149.42     -0.14
    -148.39      0.06
    -147.36     -0.04
    -146.33      0.12
    -145.30      0.08
    -144.27      0.03
    -143.24     -0.02
    -142.21      0.13
    -141.18     -0.01
    -140.15      0.12
    -139.12     -0.05
    -138.09      0.07
    -137.06     -0.00
    -136.03     -0.15
    -135.00     -0.21
    -133.97     -0.16
    -132.94      0.01
    -131.91     -0.13
    -130.87      0.04
    -129.84     -0.09
    -128.81     -0.06
    -127.78      0.04
    -126.75     -0.03
    -125.72      0.16
    -124.69     -0.06
    -123.66     -0.00
    -122.63      0.02
    -121.60      0.10
    -120.57     -0.17
    -119.54      0.01
    -118.51      0.23
    -117.48      0.00
    -116.45      0.08
    -115.42      0.11
    -114.39      0.13
    -113.36      0.01
    -112.33     -0.13
    -111.29      0.22
    -110.26     -0.01
    -109.23     -0.03
    -108.20      0.09
    -107.17      0.00
    -106.14     -0.01
    -105.11     -0.01
    -104.08      0.03
    -103.05     -0.07
    -102.02      0.14
    -100.99     -0.00
     -99.96      0.09
     -98.93      0.06
     -97.90      0.05
     -96.87      0.07
     -95.84      0.01
     -94.81      0.00
     -93.78      0.10
     -92.75      0.12
     -91.72      0.12
     -90.68      0.11
     -89.65      0.22
     -88.62      0.20
     -87.59      0.28
     -86.56      0.35
     -85.53      0.34
     -84.50      0.35
     -83.47      0.52
     -82.44      0.63
     -81.41      0.70
     -80.38      0.77
     -79.35      0.88
     -78.32      0.79
     -77.29      1.19
     -76.26      1.49
     -75.23      1.75
     -74.20      2.19
     -73.17      2.59
     -72.14      3.26
     -71.11      3.99
     -70.07      5.14
     -69.04      6.83
     -68.01      8.42
     -66.98     10.70
     -65.95     13.67
     -64.92     16.90
     -63.89     20.58
     -62.86     22.69
     -61.83     23.62
     -60.80     23.88
     -59.77     23.98
     -58.74     24.00
     -57.71     24.16
     -56.68     24.43
     -55.65     25.72
     -54.62     26.67
     -53.59     27.94
     -52.56     29.18
     -51.53     29.89
     -50.49     29.74
     -49.46     29.80
     -48.43     30.34
     -47.40     30.20
     -46.37     30.33
     -45.34     30.44
     -44.31     29.82
     -43.28     29.15
     -42.25     28.86
     -41.22     28.06
     -40.19     26.91
     -39.16     26.02
     -38.13     24.93
     -37.10     24.17
     -36.07     23.50
     -35.04     23.18
     -34.01     22.79
     -32.98     23.38
     -31.95     23.59
     -30.92     24.32
     -29.88     25.20
     -28.85     25.60
     -27.82     25.55
     -26.79     24.55
     -25.76     23.26
     -24.73     21.69
     -23.70     20.65
     -22.67     20.38
     -21.64     20.14
     -20.61     20.49
     -19.58     20.68
     -18.55     19.96
     -17.52     19.13
     -16.49     17.52
     -15.46     15.88
     -14.43     14.19
     -13.40     12.47
     -12.37     10.77
     -11.34      9.49
     -10.31      8.68
      -9.27      7.81
      -8.24      7.32
      -7.21      7.59
      -6.18      8.58
      -5.15      9.75
      -4.12     11.56
      -3.09     14.46
      -2.06     19.00
      -1.03     25.74
       0.00     35.22
       1.03     46.13
       2.06     57.00
       3.09     66.42
       4.12     72.45
       5.15     75.99
       6.18     77.11
       7.21     76.12
       8.24     76.49
       9.27     76.61
      10.31     74.93
      11.34     74.66
      12.37     75.67
      13.40     78.17
      14.43     78.15
      15.46     76.82
      16.49     81.19
      17.52     88.18
      18.55     92.13
      19.58     92.22
      20.61     90.53
      21.64     88.30
      22.67     86.95
      23.70     83.86
      24.73     78.07
      25.76     72.36
      26.79     71.04
      27.82     72.42
      28.85     71.98
      29.88     70.70
      30.92     69.53
      31.95     70.12
      32.98     72.37
      34.01     75.80
      35.04     80.11
      36.07     83.52
      37.10     85.70
      38.13     86.56
      39.16     86.82
      40.19     85.10
      41.22     83.91
      42.25     82.82
      43.28     81.83
      44.31     81.61
      45.34     83.69
      46.37     87.64
      47.40     93.34
      48.43     99.27
      49.46    105.06
      50.49    109.27
      51.53    112.49
      52.56    113.79
      53.59    113.54
      54.62    113.42
      55.65    116.20
      56.68    121.01
      57.71    126.66
      58.74    129.25
      59.77    129.26
      60.80    127.66
      61.83    126.13
      62.86    123.25
      63.89    120.81
      64.92    117.31
      65.95    112.07
      66.98    106.01
      68.01     98.66
      69.04     89.94
      70.07     80.43
      71.11     69.24
      72.14     58.07
      73.17     47.03
      74.20     37.69
      75.23     29.46
      76.26     23.25
      77.29     18.22
      78.32     14.25
      79.35     10.99
      80.38      8.54
      81.41      6.72
      82.44      5.14
      83.47      4.10
      84.50      3.32
      85.53      2.52
      86.56      2.23
      87.59      1.57
      88.62      1.34
      89.65      1.02
      90.68      0.77
      91.72      0.67
      92.75      0.61
      93.78      0.37
      94.81      0.48
      95.84      0.42
      96.87      0.36
      97.90      0.17
      98.93      0.45
      99.96      0.22
     100.99      0.24
     102.02      0.08
     103.05      0.37
     104.08     -0.03
     105.11      0.16
     106.14      0.03
     107.17      0.20
     108.20      0.30
     109.23     -0.02
     110.26     -0.04
     111.29      0.10
     112.33     -0.03
     113.36      0.22
     114.39      0.23
     115.42      0.19
     116.45      0.03
     117.48      0.26
     118.51      0.17
     119.54      0.03
     120.57      0.02
     121.60      0.15
     122.63     -0.14
     123.66     -0.01
     124.69      0.01
     125.72     -0.02
     126.75      0.06
     127.78     -0.09
     128.81     -0.03
     129.84      0.14
     130.87     -0.03
     131.91     -0.17
     132.94     -0.07
     133.97      0.07
     135.00      0.01
     136.03     -0.10
     137.06     -0.01
     138.09      0.30
     139.12      0.02
     140.15      0.02
     141.18      0.06
     142.21      0.04
     143.24     -0.03
     144.27     -0.04
     145.30      0.01
     146.33      0.29
     147.36     -0.06
     148.39      0.01
     149.42      0.15
     150.45      0.20
     151.48     -0.08
     152.52      0.07
     153.55     -0.06
     154.58     -0.06
     155.61      0.11
     156.64     -0.09
     157.67      0.12
     158.70     -0.01
     159.73      0.19
     160.76      0.03
     161.79      0.03
     162.82      0.07
     163.85     -0.08
     164.88     -0.01
     165.91      0.12
     166.94     -0.05
     167.97     -0.11
     169.00      0.04
     170.03     -0.02
     171.06      0.05
     172.09      0.02
     173.13      0.01
     174.16      0.00
     175.19     -0.14
     176.22     -0.28
     177.25     -0.00
     178.28     -0.00
     179.31      0.02
     180.34     -0.01
     181.37      0.10
     182.40     -0.27
     183.43     -0.18
     184.46     -0.04
     185.49     -0.05
     186.52     -0.12
     187.55     -0.21
     188.58      0.01
     189.61     -0.07
     190.64      0.21
     191.67      0.07
     192.71      0.03
     193.74      0.08
     194.77     -0.10
     195.80      0.13
     196.83     -0.06
     197.86      0.06
     198.89      0.03
     199.92     -0.04
     200.95     -0.08
     201.98      0.11
     203.01     -0.05
     204.04     -0.10
     205.07     -0.22
     206.10      0.04
     207.13     -0.27
     208.16     -0.08
     209.19      0.06
     210.22      0.23
     211.25      0.17
     212.28      0.12
     213.32      0.05
     214.35      0.08
     215.38      0.01
     216.41     -0.00
     217.44     -0.09
     218.47      0.02
     219.50      0.02
     220.53      0.13
     221.56     -0.04
     222.59     -0.06
     223.62      0.02
     224.65      0.09
     225.68     -0.16
     226.71      0.12
     227.74      0.08
     228.77      0.18
     229.80     -0.05
     230.83      0.14
     231.86      0.02
     232.89     -0.06
     233.93     -0.07
     234.96      0.03
     235.99     -0.10
     237.02      0.02
     238.05     -0.09
     239.08      0.20
     240.11      0.27
     241.14      0.14
     242.17      0.03
     243.20      0.12
     244.23      0.00
     245.26      0.14
     246.29     -0.07
     247.32     -0.01
     248.35     -0.01
     249.38     -0.14
     250.41      0.03
     251.44      0.13
     252.47     -0.05
     253.51      0.03
     254.54     -0.09
     255.57      0.14
     256.60     -0.08
     257.63      0.07
     258.66      0.05
     259.69      0.04
     260.72     -0.06
     261.75     -0.02
     262.78      0.16
     263.81      0.10
     264.84     -0.04
     265.87     -0.06
     266.90     -0.06
     267.93     -0.11
     268.96     -0.02
     269.99      0.33
     271.02      0.02
     272.05      0.13
     273.08     -0.08
     274.12      0.14
     275.15     -0.16
     276.18      0.11
     277.21      0.10
     278.24      0.04
     279.27      0.03
     280.30     -0.04
     281.33     -0.06
     282.36     -0.04
     283.39     -0.16
     284.42      0.11
     285.45     -0.09
     286.48      0.05
     287.51     -0.07
     288.54      0.16
     289.57      0.02
     290.60     -0.06
     291.63      0.24
     292.66     -0.01
     293.69     -0.04
     294.73      0.23
     295.76     -0.07
     296.79     -0.12
     297.82     -0.14
     298.85      0.16
     299.88      0.08
     300.91     -0.01
     301.94     -0.08
     302.97     -0.08
     304.00      0.09
     305.03     -0.00
     306.06     -0.04
     307.09     -0.09
     308.12     -0.15
     309.15     -0.13
     310.18      0.03
     311.21     -0.10
     312.24     -0.03
     313.27     -0.20
     314.30      0.18
     315.34      0.05
     316.37     -0.02
     317.40      0.10
     318.43      0.00
     319.46     -0.00
     320.49     -0.18
     321.52      0.00
     322.55     -0.18
     323.58      0.09
     324.61      0.07
     325.64      0.02
     326.67     -0.02
     327.70      0.12
     328.73     -0.28
     329.76      0.14
     330.79     -0.01
     331.82     -0.16
     332.85      0.08
     333.88      0.12
     334.92     -0.12
     335.95     -0.01
     336.98     -0.01
     338.01      0.01
     339.04     -0.07
     340.07      0.01
     341.10      0.04
     342.13      0.03
     343.16     -0.13
     344.19      0.13
     345.22     -0.04
     346.25     -0.10
     347.28     -0.05
     348.31      0.03
     349.34      0.12
     350.37     -0.02
     351.40      0.05
     352.43      0.31
     353.46      0.03
     354.49     -0.00
     355.53     -0.02
     356.56     -0.11
     357.59      0.01
     358.62      0.04
     359.65      0.05
     360.68     -0.04
     361.71     -0.01
     362.74      0.13
     363.77     -0.02
     364.80      0.10
     365.83      0.03
     366.86     -0.05
     367.89     -0.13
     368.92      0.20
     369.95      0.04
     370.98      0.03
     372.01     -0.18
     373.04      0.01
     374.07     -0.11
     375.10     -0.01
     376.14     -0.05
     377.17      0.03
     378.20     -0.10
     379.23      0.20
     380.26     -0.13
     381.29     -0.13
     382.32      0.15
     383.35     -0.06
     384.38     -0.09
     385.41     -0.04
     386.44     -0.13
     387.47     -0.21
     388.50     -0.13
     389.53     -0.25
     390.56     -0.14
     391.59     -0.06
     392.62     -0.18
     393.65      0.07
     394.68      0.07
     395.72     -0.04
     396.75      0.16
     397.78      0.07
     398.81     -0.11
     399.84     -0.07
   
