%%             65.00000             0.00000    0             0.27000
% LAB  survey ------------------
% wanted position:  l, b, RA, DEC, and interpolated  NH
% 65.00 ;   0.00 ; 298.80 ;  28.20 ;  0.104E+23
% nearest position: l, b, RA, DEC, and observed NH
% 65.00 ;   0.00 ; 298.80 ;  28.20 ;  0.104E+23
% GASS III survey --------------
% NH - median within 6 arcmin radius   0.00    
% NH - mean within specified beam      0.00    
%%GASS      0  datapoints: v_lsr [km/s] and T_B [K] for beam weighted average and median within 6 arcmin
%%LAB     777  datapoints: v_lsr [km/s] and T_B [K]
    -399.82      0.07
    -398.79     -0.06
    -397.76      0.04
    -396.73     -0.17
    -395.69      0.02
    -394.66     -0.02
    -393.63     -0.06
    -392.60      0.14
    -391.57     -0.01
    -390.54     -0.00
    -389.51     -0.04
    -388.48      0.01
    -387.45      0.04
    -386.42     -0.04
    -385.39     -0.13
    -384.36     -0.07
    -383.33      0.15
    -382.30     -0.03
    -381.27     -0.08
    -380.24      0.03
    -379.21      0.03
    -378.18     -0.05
    -377.15      0.17
    -376.12      0.04
    -375.09     -0.05
    -374.06      0.08
    -373.02      0.02
    -371.99     -0.22
    -370.96     -0.14
    -369.93     -0.06
    -368.90      0.04
    -367.87     -0.08
    -366.84     -0.08
    -365.81     -0.18
    -364.78      0.08
    -363.75      0.00
    -362.72     -0.02
    -361.69     -0.03
    -360.66     -0.01
    -359.63     -0.05
    -358.60      0.06
    -357.57      0.03
    -356.54      0.08
    -355.51      0.04
    -354.48     -0.01
    -353.45     -0.06
    -352.42      0.08
    -351.39     -0.01
    -350.35      0.07
    -349.32     -0.09
    -348.29      0.07
    -347.26      0.01
    -346.23     -0.04
    -345.20     -0.17
    -344.17     -0.08
    -343.14      0.14
    -342.11      0.03
    -341.08      0.01
    -340.05      0.05
    -339.02      0.10
    -337.99      0.03
    -336.96     -0.00
    -335.93      0.07
    -334.90     -0.13
    -333.87      0.13
    -332.84      0.01
    -331.81      0.09
    -330.78     -0.05
    -329.75     -0.10
    -328.72      0.05
    -327.68      0.21
    -326.65      0.03
    -325.62      0.09
    -324.59      0.01
    -323.56     -0.06
    -322.53     -0.08
    -321.50     -0.04
    -320.47      0.01
    -319.44      0.16
    -318.41      0.09
    -317.38     -0.15
    -316.35     -0.02
    -315.32     -0.03
    -314.29      0.00
    -313.26     -0.05
    -312.23     -0.04
    -311.20     -0.18
    -310.17      0.03
    -309.14      0.08
    -308.11     -0.03
    -307.08      0.05
    -306.05     -0.08
    -305.01      0.07
    -303.98      0.08
    -302.95     -0.03
    -301.92      0.07
    -300.89      0.03
    -299.86     -0.09
    -298.83     -0.08
    -297.80      0.00
    -296.77     -0.12
    -295.74      0.13
    -294.71     -0.01
    -293.68     -0.08
    -292.65      0.06
    -291.62     -0.02
    -290.59      0.01
    -289.56      0.07
    -288.53      0.08
    -287.50      0.06
    -286.47     -0.01
    -285.44      0.07
    -284.41      0.01
    -283.38      0.09
    -282.34     -0.12
    -281.31     -0.06
    -280.28      0.00
    -279.25     -0.18
    -278.22      0.18
    -277.19     -0.04
    -276.16      0.05
    -275.13      0.02
    -274.10      0.17
    -273.07     -0.02
    -272.04      0.06
    -271.01     -0.19
    -269.98      0.08
    -268.95      0.01
    -267.92      0.08
    -266.89      0.04
    -265.86     -0.02
    -264.83     -0.07
    -263.80      0.03
    -262.77     -0.15
    -261.74      0.07
    -260.71     -0.11
    -259.67      0.03
    -258.64     -0.05
    -257.61      0.01
    -256.58     -0.09
    -255.55      0.13
    -254.52     -0.01
    -253.49     -0.04
    -252.46      0.04
    -251.43      0.16
    -250.40      0.02
    -249.37      0.04
    -248.34      0.07
    -247.31      0.09
    -246.28     -0.01
    -245.25     -0.14
    -244.22     -0.07
    -243.19      0.08
    -242.16     -0.13
    -241.13     -0.02
    -240.10      0.00
    -239.07      0.01
    -238.04     -0.08
    -237.00     -0.01
    -235.97     -0.19
    -234.94      0.03
    -233.91      0.01
    -232.88      0.06
    -231.85      0.05
    -230.82     -0.01
    -229.79      0.04
    -228.76     -0.06
    -227.73     -0.14
    -226.70      0.10
    -225.67      0.02
    -224.64     -0.09
    -223.61      0.07
    -222.58     -0.07
    -221.55      0.02
    -220.52      0.11
    -219.49     -0.03
    -218.46      0.03
    -217.43      0.08
    -216.40      0.06
    -215.37      0.19
    -214.33     -0.04
    -213.30     -0.09
    -212.27      0.01
    -211.24      0.09
    -210.21     -0.02
    -209.18      0.02
    -208.15      0.03
    -207.12      0.02
    -206.09     -0.01
    -205.06     -0.02
    -204.03      0.02
    -203.00     -0.10
    -201.97      0.11
    -200.94     -0.12
    -199.91      0.01
    -198.88      0.02
    -197.85     -0.07
    -196.82      0.13
    -195.79     -0.04
    -194.76      0.06
    -193.73      0.10
    -192.70      0.05
    -191.66      0.10
    -190.63      0.04
    -189.60      0.21
    -188.57      0.00
    -187.54     -0.02
    -186.51     -0.01
    -185.48     -0.03
    -184.45      0.08
    -183.42      0.04
    -182.39      0.10
    -181.36      0.06
    -180.33      0.11
    -179.30     -0.04
    -178.27     -0.16
    -177.24      0.01
    -176.21     -0.23
    -175.18     -0.15
    -174.15      0.02
    -173.12      0.02
    -172.09     -0.05
    -171.06      0.00
    -170.03      0.00
    -168.99      0.06
    -167.96      0.03
    -166.93      0.11
    -165.90     -0.01
    -164.87      0.09
    -163.84      0.02
    -162.81      0.10
    -161.78     -0.11
    -160.75     -0.01
    -159.72      0.01
    -158.69      0.12
    -157.66      0.05
    -156.63     -0.06
    -155.60     -0.10
    -154.57      0.17
    -153.54     -0.12
    -152.51      0.16
    -151.48      0.01
    -150.45     -0.03
    -149.42      0.12
    -148.39      0.04
    -147.36     -0.14
    -146.32      0.04
    -145.29      0.04
    -144.26     -0.01
    -143.23      0.01
    -142.20     -0.02
    -141.17     -0.07
    -140.14     -0.01
    -139.11      0.02
    -138.08      0.02
    -137.05      0.06
    -136.02      0.09
    -134.99     -0.10
    -133.96     -0.16
    -132.93     -0.03
    -131.90     -0.02
    -130.87     -0.00
    -129.84      0.13
    -128.81      0.09
    -127.78      0.02
    -126.75     -0.07
    -125.72      0.09
    -124.69      0.07
    -123.65      0.06
    -122.62      0.10
    -121.59      0.08
    -120.56     -0.02
    -119.53      0.07
    -118.50      0.16
    -117.47      0.11
    -116.44      0.18
    -115.41      0.01
    -114.38      0.21
    -113.35      0.35
    -112.32      0.19
    -111.29      0.09
    -110.26      0.20
    -109.23      0.49
    -108.20      0.42
    -107.17      0.46
    -106.14      0.45
    -105.11      0.55
    -104.08      0.54
    -103.05      0.69
    -102.02      0.84
    -100.98      1.10
     -99.95      1.25
     -98.92      1.40
     -97.89      1.53
     -96.86      1.71
     -95.83      1.99
     -94.80      2.19
     -93.77      2.46
     -92.74      2.90
     -91.71      2.98
     -90.68      3.42
     -89.65      3.69
     -88.62      4.20
     -87.59      4.71
     -86.56      5.56
     -85.53      6.18
     -84.50      7.10
     -83.47      8.28
     -82.44      9.93
     -81.41     11.81
     -80.38     14.19
     -79.35     17.04
     -78.31     20.52
     -77.28     24.20
     -76.25     28.06
     -75.22     31.91
     -74.19     35.98
     -73.16     40.33
     -72.13     45.43
     -71.10     50.07
     -70.07     54.22
     -69.04     56.85
     -68.01     57.78
     -66.98     57.13
     -65.95     55.31
     -64.92     52.18
     -63.89     48.58
     -62.86     43.80
     -61.83     38.55
     -60.80     33.13
     -59.77     28.23
     -58.74     24.78
     -57.71     22.79
     -56.68     22.93
     -55.64     24.66
     -54.61     28.89
     -53.58     34.54
     -52.55     40.97
     -51.52     46.49
     -50.49     50.19
     -49.46     50.83
     -48.43     48.47
     -47.40     43.36
     -46.37     37.72
     -45.34     31.91
     -44.31     26.26
     -43.28     21.30
     -42.25     16.82
     -41.22     12.97
     -40.19      9.82
     -39.16      7.51
     -38.13      5.64
     -37.10      4.36
     -36.07      3.41
     -35.04      3.08
     -34.01      2.76
     -32.97      2.57
     -31.94      2.59
     -30.91      3.03
     -29.88      3.37
     -28.85      3.95
     -27.82      5.02
     -26.79      6.35
     -25.76      8.04
     -24.73      9.96
     -23.70     12.49
     -22.67     15.65
     -21.64     20.10
     -20.61     25.93
     -19.58     33.29
     -18.55     41.84
     -17.52     50.89
     -16.49     60.03
     -15.46     67.28
     -14.43     71.78
     -13.40     74.96
     -12.37     75.21
     -11.34     74.36
     -10.30     71.96
      -9.27     69.86
      -8.24     68.22
      -7.21     67.41
      -6.18     67.79
      -5.15     68.44
      -4.12     68.45
      -3.09     67.71
      -2.06     65.78
      -1.03     65.20
       0.00     66.53
       1.03     68.80
       2.06     71.87
       3.09     76.92
       4.12     83.08
       5.15     88.79
       6.18     93.58
       7.21     96.28
       8.24     98.44
       9.27     99.56
      10.30     98.82
      11.34     96.83
      12.37     95.97
      13.40     97.45
      14.43     99.72
      15.46    102.65
      16.49    105.53
      17.52    106.55
      18.55    106.42
      19.58    105.78
      20.61    103.21
      21.64     98.58
      22.67     92.67
      23.70     84.39
      24.73     75.25
      25.76     66.41
      26.79     58.66
      27.82     50.65
      28.85     42.66
      29.88     32.82
      30.91     22.08
      31.94     14.65
      32.97     10.14
      34.01      7.54
      35.04      5.57
      36.07      4.22
      37.10      3.48
      38.13      2.46
      39.16      1.95
      40.19      1.39
      41.22      1.18
      42.25      0.86
      43.28      0.86
      44.31      0.53
      45.34      0.63
      46.37      0.52
      47.40      0.38
      48.43      0.32
      49.46      0.40
      50.49      0.35
      51.52      0.14
      52.55      0.20
      53.58      0.50
      54.61      0.17
      55.64      0.13
      56.68      0.19
      57.71      0.33
      58.74      0.10
      59.77      0.26
      60.80     -0.05
      61.83     -0.01
      62.86      0.10
      63.89      0.01
      64.92     -0.05
      65.95      0.12
      66.98      0.09
      68.01      0.10
      69.04      0.03
      70.07      0.13
      71.10      0.02
      72.13     -0.03
      73.16     -0.06
      74.19      0.08
      75.22     -0.00
      76.25     -0.05
      77.28     -0.01
      78.31      0.04
      79.35      0.14
      80.38     -0.02
      81.41      0.11
      82.44     -0.11
      83.47      0.02
      84.50     -0.10
      85.53      0.02
      86.56      0.10
      87.59     -0.04
      88.62     -0.01
      89.65     -0.10
      90.68     -0.05
      91.71      0.02
      92.74      0.01
      93.77      0.13
      94.80      0.06
      95.83     -0.16
      96.86     -0.16
      97.89     -0.10
      98.92      0.21
      99.95      0.04
     100.98      0.04
     102.02      0.07
     103.05      0.08
     104.08      0.03
     105.11      0.10
     106.14     -0.04
     107.17      0.05
     108.20     -0.04
     109.23      0.14
     110.26     -0.03
     111.29      0.05
     112.32     -0.12
     113.35     -0.04
     114.38      0.11
     115.41      0.20
     116.44     -0.02
     117.47     -0.01
     118.50     -0.05
     119.53      0.05
     120.56     -0.16
     121.59      0.13
     122.62      0.05
     123.65      0.01
     124.69     -0.13
     125.72     -0.19
     126.75     -0.03
     127.78     -0.04
     128.81     -0.09
     129.84     -0.00
     130.87      0.12
     131.90      0.05
     132.93      0.20
     133.96      0.10
     134.99      0.13
     136.02     -0.04
     137.05      0.03
     138.08      0.07
     139.11      0.00
     140.14      0.14
     141.17      0.07
     142.20      0.10
     143.23      0.03
     144.26      0.01
     145.29      0.08
     146.32     -0.06
     147.36     -0.05
     148.39      0.17
     149.42     -0.04
     150.45      0.07
     151.48     -0.12
     152.51      0.05
     153.54     -0.08
     154.57      0.07
     155.60      0.07
     156.63     -0.00
     157.66     -0.07
     158.69      0.02
     159.72     -0.13
     160.75     -0.15
     161.78      0.01
     162.81      0.03
     163.84     -0.20
     164.87      0.06
     165.90      0.02
     166.93      0.15
     167.96     -0.01
     168.99      0.11
     170.03     -0.00
     171.06     -0.05
     172.09     -0.17
     173.12      0.10
     174.15     -0.03
     175.18     -0.02
     176.21     -0.04
     177.24      0.04
     178.27      0.01
     179.30     -0.08
     180.33      0.02
     181.36     -0.05
     182.39     -0.05
     183.42      0.04
     184.45     -0.10
     185.48      0.01
     186.51     -0.15
     187.54      0.00
     188.57      0.03
     189.60      0.01
     190.63      0.00
     191.66      0.08
     192.70      0.02
     193.73      0.09
     194.76     -0.07
     195.79      0.02
     196.82      0.09
     197.85      0.10
     198.88     -0.09
     199.91      0.24
     200.94      0.02
     201.97     -0.09
     203.00     -0.00
     204.03     -0.01
     205.06      0.06
     206.09      0.16
     207.12      0.04
     208.15      0.21
     209.18      0.01
     210.21      0.04
     211.24     -0.12
     212.27     -0.02
     213.30      0.04
     214.33     -0.09
     215.37     -0.10
     216.40      0.04
     217.43      0.06
     218.46     -0.15
     219.49     -0.09
     220.52      0.19
     221.55     -0.03
     222.58      0.08
     223.61     -0.08
     224.64     -0.03
     225.67     -0.06
     226.70      0.16
     227.73      0.00
     228.76      0.26
     229.79      0.08
     230.82     -0.01
     231.85     -0.07
     232.88     -0.04
     233.91     -0.00
     234.94      0.08
     235.97     -0.10
     237.00     -0.09
     238.04      0.05
     239.07     -0.02
     240.10     -0.10
     241.13     -0.07
     242.16     -0.01
     243.19     -0.01
     244.22      0.12
     245.25      0.06
     246.28     -0.05
     247.31     -0.15
     248.34      0.08
     249.37      0.23
     250.40     -0.02
     251.43      0.02
     252.46     -0.12
     253.49     -0.03
     254.52     -0.03
     255.55      0.02
     256.58     -0.10
     257.61     -0.01
     258.64     -0.03
     259.67     -0.16
     260.71     -0.06
     261.74      0.07
     262.77     -0.01
     263.80      0.12
     264.83      0.03
     265.86      0.10
     266.89      0.04
     267.92      0.10
     268.95     -0.02
     269.98      0.04
     271.01     -0.08
     272.04      0.01
     273.07      0.26
     274.10     -0.11
     275.13     -0.07
     276.16      0.22
     277.19     -0.11
     278.22     -0.02
     279.25     -0.19
     280.28      0.05
     281.31     -0.21
     282.34      0.09
     283.38     -0.04
     284.41     -0.10
     285.44     -0.11
     286.47     -0.10
     287.50      0.07
     288.53      0.15
     289.56     -0.08
     290.59     -0.01
     291.62      0.09
     292.65      0.08
     293.68      0.06
     294.71     -0.04
     295.74     -0.00
     296.77      0.01
     297.80      0.13
     298.83      0.08
     299.86      0.07
     300.89     -0.03
     301.92      0.01
     302.95      0.09
     303.98      0.05
     305.01      0.06
     306.05     -0.10
     307.08      0.02
     308.11     -0.09
     309.14     -0.12
     310.17      0.07
     311.20     -0.01
     312.23     -0.04
     313.26      0.01
     314.29     -0.03
     315.32     -0.05
     316.35      0.11
     317.38      0.13
     318.41      0.05
     319.44      0.07
     320.47     -0.12
     321.50     -0.12
     322.53     -0.09
     323.56     -0.09
     324.59     -0.03
     325.62      0.22
     326.65      0.04
     327.68     -0.04
     328.72     -0.08
     329.75      0.02
     330.78      0.12
     331.81      0.02
     332.84      0.11
     333.87     -0.04
     334.90      0.12
     335.93      0.07
     336.96     -0.01
     337.99     -0.04
     339.02     -0.08
     340.05     -0.06
     341.08      0.04
     342.11     -0.13
     343.14     -0.01
     344.17     -0.15
     345.20      0.09
     346.23      0.03
     347.26     -0.19
     348.29      0.01
     349.32     -0.13
     350.35     -0.01
     351.39      0.07
     352.42      0.01
     353.45     -0.14
     354.48     -0.05
     355.51     -0.05
     356.54     -0.02
     357.57     -0.02
     358.60      0.15
     359.63     -0.13
     360.66      0.06
     361.69      0.12
     362.72      0.15
     363.75     -0.11
     364.78      0.04
     365.81      0.14
     366.84     -0.03
     367.87      0.08
     368.90     -0.10
     369.93      0.01
     370.96     -0.04
     371.99     -0.16
     373.02      0.29
     374.06     -0.08
     375.09     -0.08
     376.12     -0.02
     377.15      0.18
     378.18      0.12
     379.21      0.05
     380.24     -0.10
     381.27     -0.02
     382.30     -0.06
     383.33     -0.00
     384.36      0.12
     385.39      0.08
     386.42      0.07
     387.45      0.02
     388.48      0.04
     389.51     -0.07
     390.54      0.03
     391.57     -0.15
     392.60     -0.13
     393.63      0.11
     394.66      0.01
     395.69      0.07
     396.73     -0.06
     397.76      0.04
     398.79      0.11
     399.82      0.05
   
