%%             80.00000             0.00000    0             0.27000
% LAB  survey ------------------
% wanted position:  l, b, RA, DEC, and interpolated  NH
% 80.00 ;   0.00 ; 308.97 ;  40.66 ;  0.914E+22
% nearest position: l, b, RA, DEC, and observed NH
% 80.00 ;   0.00 ; 308.97 ;  40.66 ;  0.914E+22
% GASS III survey --------------
% NH - median within 6 arcmin radius   0.00    
% NH - mean within specified beam      0.00    
%%GASS      0  datapoints: v_lsr [km/s] and T_B [K] for beam weighted average and median within 6 arcmin
%%LAB     777  datapoints: v_lsr [km/s] and T_B [K]
    -399.84      0.02
    -398.81     -0.19
    -397.78     -0.07
    -396.75     -0.08
    -395.71     -0.04
    -394.68     -0.10
    -393.65     -0.01
    -392.62     -0.20
    -391.59     -0.09
    -390.56     -0.07
    -389.53     -0.08
    -388.50      0.09
    -387.47      0.00
    -386.44     -0.01
    -385.41      0.06
    -384.38      0.10
    -383.35      0.02
    -382.32     -0.02
    -381.29     -0.16
    -380.26      0.07
    -379.23      0.27
    -378.20     -0.01
    -377.17      0.11
    -376.14     -0.00
    -375.10     -0.07
    -374.07     -0.11
    -373.04     -0.05
    -372.01     -0.07
    -370.98      0.02
    -369.95     -0.15
    -368.92      0.16
    -367.89     -0.04
    -366.86     -0.09
    -365.83     -0.17
    -364.80      0.13
    -363.77     -0.15
    -362.74      0.04
    -361.71      0.02
    -360.68     -0.00
    -359.65      0.12
    -358.62      0.20
    -357.59      0.02
    -356.56     -0.10
    -355.52     -0.26
    -354.49     -0.03
    -353.46     -0.05
    -352.43     -0.12
    -351.40     -0.03
    -350.37     -0.06
    -349.34      0.03
    -348.31     -0.29
    -347.28      0.16
    -346.25     -0.06
    -345.22      0.01
    -344.19      0.15
    -343.16      0.11
    -342.13      0.04
    -341.10      0.02
    -340.07     -0.02
    -339.04      0.14
    -338.01     -0.11
    -336.98      0.10
    -335.95      0.08
    -334.91      0.05
    -333.88      0.05
    -332.85     -0.13
    -331.82     -0.02
    -330.79     -0.03
    -329.76      0.17
    -328.73     -0.10
    -327.70      0.07
    -326.67     -0.12
    -325.64      0.04
    -324.61      0.25
    -323.58     -0.06
    -322.55      0.02
    -321.52      0.03
    -320.49      0.06
    -319.46      0.14
    -318.43     -0.07
    -317.40     -0.10
    -316.37     -0.06
    -315.34     -0.07
    -314.30      0.17
    -313.27     -0.00
    -312.24      0.02
    -311.21      0.10
    -310.18     -0.04
    -309.15      0.09
    -308.12     -0.02
    -307.09     -0.20
    -306.06      0.02
    -305.03      0.32
    -304.00     -0.04
    -302.97      0.02
    -301.94      0.00
    -300.91      0.12
    -299.88      0.11
    -298.85     -0.02
    -297.82     -0.31
    -296.79     -0.05
    -295.76      0.02
    -294.73      0.10
    -293.69     -0.12
    -292.66      0.18
    -291.63     -0.11
    -290.60      0.13
    -289.57      0.00
    -288.54     -0.08
    -287.51     -0.20
    -286.48     -0.03
    -285.45     -0.34
    -284.42      0.10
    -283.39     -0.12
    -282.36      0.02
    -281.33      0.17
    -280.30      0.04
    -279.27     -0.01
    -278.24      0.05
    -277.21     -0.10
    -276.18     -0.15
    -275.15     -0.13
    -274.11      0.10
    -273.08      0.13
    -272.05      0.02
    -271.02     -0.15
    -269.99     -0.07
    -268.96     -0.04
    -267.93     -0.00
    -266.90     -0.21
    -265.87      0.15
    -264.84      0.12
    -263.81     -0.03
    -262.78      0.01
    -261.75      0.21
    -260.72     -0.08
    -259.69     -0.07
    -258.66      0.19
    -257.63     -0.21
    -256.60     -0.09
    -255.57     -0.07
    -254.54      0.16
    -253.50      0.09
    -252.47      0.06
    -251.44     -0.07
    -250.41      0.09
    -249.38      0.04
    -248.35      0.13
    -247.32     -0.03
    -246.29     -0.07
    -245.26      0.19
    -244.23      0.16
    -243.20     -0.01
    -242.17      0.09
    -241.14     -0.15
    -240.11      0.07
    -239.08     -0.07
    -238.05     -0.18
    -237.02      0.12
    -235.99     -0.07
    -234.96      0.09
    -233.93     -0.11
    -232.89     -0.03
    -231.86      0.10
    -230.83      0.01
    -229.80      0.03
    -228.77      0.04
    -227.74      0.09
    -226.71      0.12
    -225.68     -0.01
    -224.65     -0.16
    -223.62     -0.05
    -222.59      0.01
    -221.56      0.08
    -220.53      0.16
    -219.50      0.06
    -218.47     -0.14
    -217.44     -0.06
    -216.41     -0.09
    -215.38      0.03
    -214.35      0.06
    -213.31     -0.03
    -212.28     -0.03
    -211.25     -0.06
    -210.22     -0.10
    -209.19      0.14
    -208.16     -0.01
    -207.13      0.01
    -206.10      0.22
    -205.07     -0.11
    -204.04     -0.07
    -203.01      0.05
    -201.98      0.29
    -200.95     -0.12
    -199.92      0.05
    -198.89      0.02
    -197.86      0.01
    -196.83      0.12
    -195.80      0.05
    -194.77     -0.00
    -193.74      0.08
    -192.70     -0.14
    -191.67      0.07
    -190.64     -0.21
    -189.61      0.09
    -188.58      0.06
    -187.55     -0.02
    -186.52     -0.16
    -185.49      0.01
    -184.46      0.05
    -183.43      0.06
    -182.40      0.03
    -181.37      0.07
    -180.34      0.05
    -179.31      0.08
    -178.28      0.12
    -177.25      0.21
    -176.22     -0.11
    -175.19      0.12
    -174.16     -0.10
    -173.13      0.06
    -172.09      0.00
    -171.06      0.03
    -170.03      0.01
    -169.00      0.21
    -167.97      0.07
    -166.94      0.15
    -165.91      0.11
    -164.88      0.08
    -163.85      0.05
    -162.82      0.13
    -161.79     -0.17
    -160.76      0.02
    -159.73      0.05
    -158.70      0.16
    -157.67     -0.04
    -156.64     -0.06
    -155.61     -0.14
    -154.58      0.07
    -153.55     -0.02
    -152.52      0.15
    -151.48      0.09
    -150.45      0.02
    -149.42     -0.05
    -148.39     -0.01
    -147.36      0.17
    -146.33      0.27
    -145.30      0.24
    -144.27      0.20
    -143.24      0.17
    -142.21      0.27
    -141.18      0.26
    -140.15      0.34
    -139.12      0.35
    -138.09      0.21
    -137.06      0.17
    -136.03      0.21
    -135.00      0.14
    -133.97      0.40
    -132.94      0.36
    -131.90      0.20
    -130.87      0.25
    -129.84      0.38
    -128.81      0.19
    -127.78      0.54
    -126.75      0.13
    -125.72      0.31
    -124.69      0.40
    -123.66      0.64
    -122.63      0.42
    -121.60      0.57
    -120.57      0.60
    -119.54      0.58
    -118.51      0.62
    -117.48      0.57
    -116.45      0.70
    -115.42      0.35
    -114.39      0.55
    -113.36      0.62
    -112.33      0.49
    -111.29      0.58
    -110.26      0.51
    -109.23      0.83
    -108.20      0.86
    -107.17      0.96
    -106.14      1.09
    -105.11      1.25
    -104.08      1.57
    -103.05      1.81
    -102.02      2.03
    -100.99      2.52
     -99.96      2.87
     -98.93      3.14
     -97.90      3.52
     -96.87      4.28
     -95.84      4.84
     -94.81      5.49
     -93.78      6.99
     -92.75      8.72
     -91.72     11.13
     -90.68     12.51
     -89.65     12.68
     -88.62     12.26
     -87.59     11.37
     -86.56     11.25
     -85.53     11.29
     -84.50     11.92
     -83.47     12.27
     -82.44     13.08
     -81.41     13.55
     -80.38     14.39
     -79.35     15.15
     -78.32     15.89
     -77.29     17.40
     -76.26     18.83
     -75.23     21.80
     -74.20     24.88
     -73.17     28.04
     -72.14     31.57
     -71.10     34.33
     -70.07     35.91
     -69.04     37.18
     -68.01     37.31
     -66.98     36.68
     -65.95     36.40
     -64.92     35.97
     -63.89     34.56
     -62.86     31.39
     -61.83     26.22
     -60.80     22.12
     -59.77     20.06
     -58.74     18.30
     -57.71     17.12
     -56.68     16.88
     -55.65     17.40
     -54.62     18.91
     -53.59     21.86
     -52.56     25.07
     -51.53     29.73
     -50.49     34.89
     -49.46     39.78
     -48.43     42.58
     -47.40     43.87
     -46.37     44.61
     -45.34     46.62
     -44.31     49.64
     -43.28     52.65
     -42.25     53.07
     -41.22     51.43
     -40.19     48.41
     -39.16     43.89
     -38.13     38.87
     -37.10     34.38
     -36.07     30.74
     -35.04     27.85
     -34.01     26.48
     -32.98     25.03
     -31.95     23.70
     -30.92     22.30
     -29.88     20.95
     -28.85     20.61
     -27.82     20.35
     -26.79     20.54
     -25.76     21.60
     -24.73     21.52
     -23.70     20.86
     -22.67     20.05
     -21.64     18.51
     -20.61     17.84
     -19.58     17.35
     -18.55     18.09
     -17.52     19.85
     -16.49     23.03
     -15.46     27.89
     -14.43     33.87
     -13.40     41.18
     -12.37     49.37
     -11.34     57.11
     -10.31     65.19
      -9.27     73.27
      -8.24     82.14
      -7.21     91.19
      -6.18     97.39
      -5.15     99.03
      -4.12     98.58
      -3.09     97.32
      -2.06     94.73
      -1.03     93.11
       0.00     93.87
       1.03     93.62
       2.06     93.50
       3.09     93.07
       4.12     95.02
       5.15     96.11
       6.18     97.93
       7.21    103.64
       8.24    109.64
       9.27    110.70
      10.31    105.94
      11.34    101.50
      12.37     96.49
      13.40     90.71
      14.43     79.85
      15.46     63.06
      16.49     48.21
      17.52     37.91
      18.55     30.49
      19.58     23.84
      20.61     18.49
      21.64     14.41
      22.67     11.04
      23.70      8.78
      24.73      7.07
      25.76      5.46
      26.79      4.35
      27.82      3.64
      28.85      2.84
      29.88      2.48
      30.92      2.04
      31.95      1.55
      32.98      1.25
      34.01      1.00
      35.04      0.76
      36.07      0.69
      37.10      0.85
      38.13      0.59
      39.16      0.56
      40.19      0.46
      41.22      0.34
      42.25      0.23
      43.28      0.36
      44.31      0.28
      45.34      0.35
      46.37      0.36
      47.40      0.23
      48.43      0.19
      49.46      0.13
      50.49     -0.01
      51.53      0.21
      52.56      0.13
      53.59     -0.06
      54.62      0.16
      55.65      0.11
      56.68     -0.03
      57.71     -0.16
      58.74     -0.13
      59.77      0.21
      60.80     -0.04
      61.83      0.10
      62.86      0.11
      63.89      0.10
      64.92      0.06
      65.95      0.02
      66.98      0.01
      68.01      0.09
      69.04      0.09
      70.07      0.05
      71.10      0.06
      72.14      0.31
      73.17      0.24
      74.20      0.06
      75.23     -0.14
      76.26      0.18
      77.29      0.15
      78.32      0.25
      79.35      0.10
      80.38     -0.07
      81.41      0.19
      82.44     -0.02
      83.47      0.02
      84.50      0.20
      85.53     -0.17
      86.56     -0.08
      87.59      0.02
      88.62      0.14
      89.65     -0.00
      90.68      0.04
      91.72      0.13
      92.75     -0.01
      93.78     -0.02
      94.81      0.16
      95.84      0.13
      96.87      0.17
      97.90      0.08
      98.93      0.07
      99.96     -0.03
     100.99      0.13
     102.02     -0.28
     103.05     -0.13
     104.08      0.02
     105.11     -0.13
     106.14      0.08
     107.17     -0.11
     108.20      0.09
     109.23      0.07
     110.26      0.01
     111.29      0.03
     112.33      0.04
     113.36      0.16
     114.39      0.02
     115.42     -0.03
     116.45     -0.07
     117.48      0.29
     118.51     -0.15
     119.54      0.05
     120.57      0.05
     121.60      0.10
     122.63     -0.07
     123.66      0.14
     124.69      0.08
     125.72      0.16
     126.75      0.14
     127.78     -0.02
     128.81     -0.11
     129.84     -0.06
     130.87     -0.17
     131.90     -0.04
     132.94     -0.06
     133.97      0.00
     135.00     -0.29
     136.03     -0.07
     137.06     -0.10
     138.09     -0.08
     139.12     -0.17
     140.15     -0.04
     141.18      0.12
     142.21     -0.10
     143.24     -0.15
     144.27     -0.03
     145.30     -0.04
     146.33     -0.16
     147.36      0.11
     148.39      0.03
     149.42      0.07
     150.45     -0.16
     151.48     -0.01
     152.52     -0.02
     153.55      0.10
     154.58      0.06
     155.61      0.19
     156.64     -0.01
     157.67     -0.04
     158.70     -0.05
     159.73     -0.11
     160.76      0.04
     161.79     -0.11
     162.82     -0.09
     163.85      0.07
     164.88      0.17
     165.91      0.07
     166.94      0.03
     167.97     -0.07
     169.00      0.15
     170.03     -0.02
     171.06     -0.06
     172.09      0.04
     173.13      0.00
     174.16     -0.01
     175.19     -0.15
     176.22      0.01
     177.25      0.18
     178.28     -0.09
     179.31     -0.01
     180.34     -0.08
     181.37     -0.14
     182.40      0.00
     183.43     -0.07
     184.46     -0.12
     185.49      0.00
     186.52     -0.05
     187.55     -0.14
     188.58     -0.06
     189.61     -0.02
     190.64      0.03
     191.67     -0.09
     192.70     -0.07
     193.74      0.05
     194.77     -0.00
     195.80      0.19
     196.83      0.05
     197.86      0.11
     198.89      0.13
     199.92      0.11
     200.95     -0.03
     201.98      0.03
     203.01     -0.02
     204.04      0.07
     205.07     -0.02
     206.10      0.10
     207.13      0.03
     208.16      0.06
     209.19     -0.04
     210.22      0.06
     211.25     -0.14
     212.28      0.03
     213.31     -0.07
     214.35      0.24
     215.38      0.02
     216.41     -0.06
     217.44     -0.29
     218.47      0.01
     219.50     -0.06
     220.53      0.26
     221.56      0.00
     222.59      0.10
     223.62     -0.07
     224.65      0.13
     225.68      0.05
     226.71      0.11
     227.74      0.06
     228.77      0.05
     229.80     -0.13
     230.83      0.10
     231.86     -0.04
     232.89      0.11
     233.93     -0.10
     234.96      0.10
     235.99      0.23
     237.02      0.04
     238.05      0.17
     239.08      0.07
     240.11     -0.19
     241.14      0.07
     242.17      0.02
     243.20      0.06
     244.23     -0.04
     245.26     -0.07
     246.29     -0.06
     247.32      0.03
     248.35     -0.13
     249.38     -0.13
     250.41      0.07
     251.44     -0.03
     252.47     -0.02
     253.50     -0.01
     254.54      0.03
     255.57      0.17
     256.60     -0.14
     257.63     -0.12
     258.66     -0.07
     259.69      0.03
     260.72      0.16
     261.75     -0.04
     262.78     -0.08
     263.81     -0.14
     264.84     -0.11
     265.87      0.06
     266.90      0.01
     267.93     -0.12
     268.96     -0.11
     269.99      0.13
     271.02      0.12
     272.05      0.19
     273.08      0.07
     274.11     -0.05
     275.15     -0.06
     276.18      0.17
     277.21     -0.05
     278.24     -0.04
     279.27     -0.04
     280.30      0.08
     281.33     -0.13
     282.36      0.25
     283.39      0.02
     284.42      0.15
     285.45      0.15
     286.48      0.07
     287.51      0.31
     288.54      0.12
     289.57     -0.16
     290.60      0.38
     291.63      0.03
     292.66      0.06
     293.69     -0.06
     294.73     -0.07
     295.76     -0.11
     296.79      0.00
     297.82      0.22
     298.85     -0.05
     299.88      0.00
     300.91     -0.10
     301.94     -0.09
     302.97      0.09
     304.00      0.02
     305.03      0.05
     306.06     -0.20
     307.09      0.11
     308.12     -0.08
     309.15      0.04
     310.18     -0.09
     311.21      0.06
     312.24      0.06
     313.27     -0.06
     314.30     -0.01
     315.34     -0.01
     316.37     -0.02
     317.40     -0.09
     318.43     -0.19
     319.46      0.15
     320.49      0.30
     321.52      0.02
     322.55     -0.16
     323.58      0.06
     324.61      0.02
     325.64      0.07
     326.67     -0.24
     327.70      0.06
     328.73      0.01
     329.76     -0.24
     330.79     -0.03
     331.82      0.02
     332.85     -0.16
     333.88      0.22
     334.91      0.20
     335.95      0.01
     336.98     -0.01
     338.01      0.03
     339.04      0.12
     340.07     -0.04
     341.10     -0.23
     342.13      0.19
     343.16     -0.18
     344.19      0.00
     345.22      0.02
     346.25      0.06
     347.28      0.06
     348.31      0.14
     349.34     -0.04
     350.37      0.17
     351.40      0.17
     352.43      0.04
     353.46     -0.07
     354.49      0.02
     355.52      0.05
     356.56      0.06
     357.59      0.01
     358.62     -0.10
     359.65      0.13
     360.68      0.21
     361.71      0.08
     362.74     -0.07
     363.77     -0.16
     364.80      0.00
     365.83     -0.37
     366.86      0.03
     367.89     -0.01
     368.92     -0.03
     369.95     -0.17
     370.98      0.07
     372.01     -0.17
     373.04      0.28
     374.07      0.03
     375.10      0.05
     376.14     -0.25
     377.17     -0.10
     378.20     -0.10
     379.23      0.06
     380.26      0.17
     381.29      0.06
     382.32      0.15
     383.35      0.17
     384.38     -0.12
     385.41      0.08
     386.44     -0.06
     387.47     -0.03
     388.50      0.09
     389.53     -0.07
     390.56     -0.13
     391.59      0.06
     392.62      0.09
     393.65     -0.02
     394.68      0.00
     395.71      0.33
     396.75     -0.13
     397.78     -0.01
     398.81      0.17
     399.84      0.18
   
