%%             50.00000             0.00000    0             0.27000
% LAB  survey ------------------
% wanted position:  l, b, RA, DEC, and interpolated  NH
% 50.00 ;   0.00 ; 290.83 ;  15.14 ;  0.142E+23
% nearest position: l, b, RA, DEC, and observed NH
% 50.00 ;   0.00 ; 290.83 ;  15.14 ;  0.142E+23
% GASS III survey --------------
% NH - median within 6 arcmin radius   0.00    
% NH - mean within specified beam      0.00    
%%GASS      0  datapoints: v_lsr [km/s] and T_B [K] for beam weighted average and median within 6 arcmin
%%LAB     777  datapoints: v_lsr [km/s] and T_B [K]
    -399.84     -0.04
    -398.81     -0.02
    -397.78      0.07
    -396.75     -0.09
    -395.72      0.06
    -394.69     -0.09
    -393.66      0.08
    -392.63      0.07
    -391.60      0.10
    -390.57     -0.11
    -389.54      0.19
    -388.51     -0.10
    -387.48      0.14
    -386.45     -0.12
    -385.41      0.01
    -384.38     -0.04
    -383.35      0.03
    -382.32     -0.08
    -381.29      0.05
    -380.26     -0.25
    -379.23     -0.08
    -378.20      0.02
    -377.17      0.01
    -376.14     -0.05
    -375.11      0.13
    -374.08      0.04
    -373.05     -0.10
    -372.02     -0.07
    -370.99     -0.03
    -369.96     -0.08
    -368.93      0.12
    -367.90     -0.09
    -366.87      0.10
    -365.84     -0.13
    -364.80      0.15
    -363.77      0.03
    -362.74      0.16
    -361.71      0.05
    -360.68      0.01
    -359.65     -0.11
    -358.62      0.03
    -357.59      0.15
    -356.56      0.04
    -355.53      0.14
    -354.50      0.08
    -353.47     -0.01
    -352.44      0.12
    -351.41     -0.15
    -350.38      0.06
    -349.35     -0.01
    -348.32      0.08
    -347.29      0.05
    -346.26      0.20
    -345.22     -0.02
    -344.19     -0.10
    -343.16     -0.00
    -342.13      0.05
    -341.10      0.05
    -340.07     -0.03
    -339.04     -0.04
    -338.01      0.05
    -336.98      0.11
    -335.95      0.09
    -334.92     -0.18
    -333.89     -0.14
    -332.86     -0.11
    -331.83     -0.05
    -330.80     -0.02
    -329.77     -0.10
    -328.74     -0.01
    -327.71      0.14
    -326.68     -0.06
    -325.64     -0.12
    -324.61     -0.17
    -323.58      0.24
    -322.55      0.06
    -321.52     -0.14
    -320.49     -0.06
    -319.46      0.00
    -318.43     -0.08
    -317.40      0.10
    -316.37      0.03
    -315.34      0.20
    -314.31      0.09
    -313.28      0.06
    -312.25     -0.14
    -311.22     -0.11
    -310.19      0.14
    -309.16      0.12
    -308.13     -0.12
    -307.10     -0.02
    -306.06     -0.08
    -305.03     -0.04
    -304.00     -0.05
    -302.97      0.23
    -301.94     -0.08
    -300.91      0.15
    -299.88      0.21
    -298.85      0.12
    -297.82     -0.23
    -296.79     -0.17
    -295.76     -0.09
    -294.73     -0.01
    -293.70     -0.14
    -292.67     -0.11
    -291.64      0.02
    -290.61      0.02
    -289.58     -0.15
    -288.55     -0.00
    -287.52     -0.22
    -286.48      0.03
    -285.45     -0.06
    -284.42      0.11
    -283.39      0.06
    -282.36     -0.02
    -281.33      0.17
    -280.30      0.01
    -279.27      0.04
    -278.24     -0.04
    -277.21     -0.16
    -276.18      0.04
    -275.15      0.01
    -274.12     -0.00
    -273.09      0.01
    -272.06     -0.13
    -271.03     -0.08
    -270.00      0.00
    -268.97     -0.05
    -267.94      0.03
    -266.90     -0.09
    -265.87      0.12
    -264.84      0.06
    -263.81      0.01
    -262.78      0.11
    -261.75      0.11
    -260.72     -0.15
    -259.69      0.08
    -258.66     -0.01
    -257.63      0.01
    -256.60     -0.00
    -255.57     -0.09
    -254.54      0.03
    -253.51      0.05
    -252.48      0.11
    -251.45     -0.01
    -250.42     -0.23
    -249.39     -0.07
    -248.36     -0.07
    -247.33      0.12
    -246.29      0.17
    -245.26     -0.09
    -244.23      0.04
    -243.20     -0.03
    -242.17      0.14
    -241.14     -0.03
    -240.11     -0.02
    -239.08      0.03
    -238.05      0.03
    -237.02      0.19
    -235.99      0.04
    -234.96      0.16
    -233.93      0.02
    -232.90      0.14
    -231.87      0.11
    -230.84      0.20
    -229.81      0.00
    -228.78      0.19
    -227.75      0.04
    -226.71      0.05
    -225.68      0.06
    -224.65      0.08
    -223.62     -0.12
    -222.59      0.04
    -221.56     -0.09
    -220.53      0.06
    -219.50     -0.11
    -218.47      0.03
    -217.44      0.09
    -216.41      0.04
    -215.38      0.04
    -214.35     -0.12
    -213.32     -0.05
    -212.29     -0.01
    -211.26      0.11
    -210.23     -0.06
    -209.20     -0.07
    -208.17     -0.08
    -207.13     -0.07
    -206.10      0.00
    -205.07      0.03
    -204.04     -0.04
    -203.01     -0.06
    -201.98     -0.07
    -200.95     -0.18
    -199.92      0.07
    -198.89     -0.11
    -197.86     -0.10
    -196.83      0.03
    -195.80      0.19
    -194.77     -0.00
    -193.74      0.01
    -192.71     -0.08
    -191.68      0.13
    -190.65     -0.06
    -189.62     -0.05
    -188.59     -0.10
    -187.55      0.03
    -186.52      0.05
    -185.49      0.04
    -184.46      0.08
    -183.43      0.01
    -182.40      0.07
    -181.37      0.08
    -180.34      0.11
    -179.31      0.10
    -178.28      0.07
    -177.25      0.03
    -176.22     -0.16
    -175.19      0.00
    -174.16     -0.05
    -173.13     -0.10
    -172.10      0.04
    -171.07      0.07
    -170.04     -0.11
    -169.01     -0.01
    -167.97      0.19
    -166.94      0.05
    -165.91      0.17
    -164.88      0.12
    -163.85      0.03
    -162.82     -0.02
    -161.79      0.07
    -160.76      0.25
    -159.73     -0.08
    -158.70      0.14
    -157.67     -0.00
    -156.64     -0.07
    -155.61      0.11
    -154.58     -0.12
    -153.55     -0.04
    -152.52      0.21
    -151.49     -0.09
    -150.46     -0.02
    -149.43      0.12
    -148.40      0.08
    -147.36     -0.05
    -146.33      0.19
    -145.30     -0.03
    -144.27      0.14
    -143.24     -0.03
    -142.21     -0.06
    -141.18     -0.05
    -140.15      0.12
    -139.12     -0.09
    -138.09      0.01
    -137.06     -0.02
    -136.03     -0.11
    -135.00     -0.11
    -133.97      0.07
    -132.94     -0.00
    -131.91     -0.11
    -130.88      0.03
    -129.85      0.13
    -128.82      0.09
    -127.78     -0.03
    -126.75     -0.05
    -125.72      0.08
    -124.69     -0.09
    -123.66      0.15
    -122.63      0.00
    -121.60      0.08
    -120.57      0.12
    -119.54     -0.10
    -118.51     -0.32
    -117.48     -0.01
    -116.45     -0.15
    -115.42     -0.01
    -114.39      0.12
    -113.36      0.24
    -112.33      0.06
    -111.30      0.08
    -110.27     -0.06
    -109.24      0.16
    -108.20      0.26
    -107.17      0.20
    -106.14      0.08
    -105.11      0.06
    -104.08      0.06
    -103.05      0.11
    -102.02      0.14
    -100.99      0.19
     -99.96      0.26
     -98.93      0.10
     -97.90      0.05
     -96.87      0.17
     -95.84      0.12
     -94.81      0.21
     -93.78      0.15
     -92.75      0.07
     -91.72      0.22
     -90.69      0.41
     -89.66      0.22
     -88.62      0.33
     -87.59      0.34
     -86.56      0.55
     -85.53      0.49
     -84.50      0.64
     -83.47      0.63
     -82.44      0.56
     -81.41      0.58
     -80.38      0.80
     -79.35      1.03
     -78.32      1.21
     -77.29      1.49
     -76.26      1.98
     -75.23      2.09
     -74.20      2.68
     -73.17      3.23
     -72.14      4.06
     -71.11      4.89
     -70.08      6.41
     -69.04      7.96
     -68.01     10.36
     -66.98     13.56
     -65.95     17.15
     -64.92     20.65
     -63.89     23.39
     -62.86     24.89
     -61.83     25.36
     -60.80     25.60
     -59.77     25.39
     -58.74     25.52
     -57.71     26.24
     -56.68     27.72
     -55.65     30.51
     -54.62     33.22
     -53.59     36.50
     -52.56     38.84
     -51.53     40.77
     -50.50     41.73
     -49.47     42.43
     -48.43     42.49
     -47.40     40.85
     -46.37     37.33
     -45.34     33.10
     -44.31     28.39
     -43.28     24.79
     -42.25     21.10
     -41.22     18.07
     -40.19     15.60
     -39.16     13.15
     -38.13     10.96
     -37.10      9.26
     -36.07      7.90
     -35.04      6.98
     -34.01      6.39
     -32.98      5.36
     -31.95      4.85
     -30.92      4.69
     -29.89      4.50
     -28.85      5.16
     -27.82      5.66
     -26.79      5.89
     -25.76      6.76
     -24.73      8.28
     -23.70     11.16
     -22.67     15.31
     -21.64     20.30
     -20.61     25.93
     -19.58     31.86
     -18.55     36.62
     -17.52     39.90
     -16.49     41.50
     -15.46     41.15
     -14.43     39.59
     -13.40     36.23
     -12.37     31.89
     -11.34     26.76
     -10.31     22.74
      -9.27     18.62
      -8.24     16.99
      -7.21     17.44
      -6.18     19.52
      -5.15     22.99
      -4.12     26.80
      -3.09     31.37
      -2.06     36.36
      -1.03     41.93
       0.00     48.26
       1.03     55.53
       2.06     64.30
       3.09     72.70
       4.12     79.11
       5.15     80.22
       6.18     82.11
       7.21     89.12
       8.24     95.29
       9.27    100.86
      10.31    101.51
      11.34     98.12
      12.37     93.06
      13.40     87.82
      14.43     82.74
      15.46     78.53
      16.49     75.95
      17.52     74.81
      18.55     76.38
      19.58     78.26
      20.61     80.54
      21.64     82.36
      22.67     83.45
      23.70     81.06
      24.73     75.76
      25.76     69.08
      26.79     61.88
      27.82     55.39
      28.85     49.80
      29.89     47.01
      30.92     47.85
      31.95     51.22
      32.98     54.13
      34.01     56.04
      35.04     56.31
      36.07     57.86
      37.10     61.04
      38.13     66.41
      39.16     73.88
      40.19     81.69
      41.22     88.49
      42.25     93.58
      43.28     96.77
      44.31     97.93
      45.34    100.05
      46.37    103.34
      47.40    107.31
      48.43    110.18
      49.47    111.76
      50.50    112.60
      51.53    113.56
      52.56    114.11
      53.59    112.08
      54.62    109.44
      55.65    107.26
      56.68    105.34
      57.71    104.57
      58.74    105.07
      59.77    104.20
      60.80    102.24
      61.83    100.43
      62.86     97.78
      63.89     94.86
      64.92     90.61
      65.95     84.82
      66.98     78.69
      68.01     70.70
      69.04     62.02
      70.08     52.82
      71.11     44.08
      72.14     35.65
      73.17     28.42
      74.20     22.10
      75.23     16.71
      76.26     12.47
      77.29      9.17
      78.32      6.91
      79.35      5.59
      80.38      4.39
      81.41      3.25
      82.44      2.56
      83.47      2.01
      84.50      1.81
      85.53      1.36
      86.56      1.14
      87.59      1.09
      88.62      0.85
      89.66      0.63
      90.69      0.64
      91.72      0.43
      92.75      0.43
      93.78      0.29
      94.81      0.23
      95.84      0.35
      96.87      0.43
      97.90      0.07
      98.93      0.07
      99.96      0.14
     100.99      0.24
     102.02      0.03
     103.05      0.15
     104.08      0.05
     105.11      0.00
     106.14      0.14
     107.17      0.18
     108.20      0.04
     109.24      0.01
     110.27     -0.15
     111.30      0.13
     112.33      0.02
     113.36      0.20
     114.39      0.03
     115.42      0.06
     116.45      0.11
     117.48      0.14
     118.51     -0.07
     119.54      0.06
     120.57     -0.03
     121.60      0.06
     122.63     -0.05
     123.66      0.03
     124.69      0.03
     125.72      0.17
     126.75     -0.11
     127.78      0.28
     128.82      0.08
     129.85      0.03
     130.88      0.00
     131.91     -0.18
     132.94      0.01
     133.97      0.06
     135.00     -0.06
     136.03     -0.03
     137.06      0.05
     138.09      0.04
     139.12     -0.28
     140.15      0.04
     141.18      0.04
     142.21     -0.05
     143.24      0.04
     144.27     -0.04
     145.30      0.01
     146.33      0.07
     147.36      0.02
     148.40      0.20
     149.43     -0.03
     150.46      0.02
     151.49     -0.02
     152.52      0.16
     153.55     -0.03
     154.58     -0.06
     155.61     -0.05
     156.64     -0.19
     157.67     -0.09
     158.70      0.03
     159.73      0.07
     160.76     -0.02
     161.79     -0.00
     162.82     -0.00
     163.85     -0.14
     164.88      0.04
     165.91     -0.07
     166.94      0.07
     167.97      0.01
     169.01      0.15
     170.04      0.02
     171.07     -0.07
     172.10     -0.01
     173.13     -0.09
     174.16     -0.14
     175.19      0.06
     176.22      0.16
     177.25      0.07
     178.28      0.08
     179.31      0.07
     180.34     -0.14
     181.37      0.06
     182.40     -0.03
     183.43      0.23
     184.46     -0.18
     185.49     -0.13
     186.52     -0.10
     187.55      0.08
     188.59      0.02
     189.62      0.05
     190.65     -0.04
     191.68     -0.02
     192.71      0.12
     193.74      0.14
     194.77     -0.18
     195.80      0.22
     196.83     -0.01
     197.86     -0.00
     198.89     -0.04
     199.92      0.17
     200.95     -0.09
     201.98      0.22
     203.01      0.03
     204.04     -0.02
     205.07      0.02
     206.10      0.05
     207.13     -0.10
     208.17      0.04
     209.20     -0.14
     210.23     -0.07
     211.26      0.17
     212.29      0.13
     213.32     -0.07
     214.35      0.05
     215.38     -0.01
     216.41     -0.04
     217.44      0.00
     218.47     -0.02
     219.50      0.02
     220.53      0.06
     221.56      0.05
     222.59     -0.07
     223.62     -0.01
     224.65      0.09
     225.68      0.25
     226.71      0.03
     227.75     -0.00
     228.78      0.11
     229.81     -0.08
     230.84      0.09
     231.87     -0.09
     232.90     -0.05
     233.93     -0.12
     234.96      0.09
     235.99     -0.01
     237.02      0.06
     238.05     -0.09
     239.08     -0.11
     240.11     -0.08
     241.14      0.06
     242.17     -0.00
     243.20     -0.07
     244.23      0.11
     245.26      0.08
     246.29     -0.04
     247.33     -0.08
     248.36      0.08
     249.39      0.06
     250.42     -0.08
     251.45      0.03
     252.48     -0.01
     253.51     -0.07
     254.54     -0.14
     255.57     -0.06
     256.60     -0.14
     257.63     -0.01
     258.66      0.10
     259.69     -0.02
     260.72     -0.03
     261.75     -0.06
     262.78      0.06
     263.81      0.06
     264.84      0.05
     265.87      0.02
     266.90      0.12
     267.94     -0.03
     268.97     -0.12
     270.00      0.07
     271.03     -0.12
     272.06     -0.06
     273.09     -0.11
     274.12     -0.04
     275.15     -0.07
     276.18     -0.06
     277.21      0.09
     278.24     -0.06
     279.27      0.07
     280.30      0.12
     281.33      0.03
     282.36     -0.07
     283.39     -0.07
     284.42     -0.23
     285.45      0.05
     286.48      0.05
     287.52      0.15
     288.55      0.00
     289.58     -0.00
     290.61      0.00
     291.64      0.06
     292.67     -0.02
     293.70      0.02
     294.73      0.02
     295.76      0.13
     296.79      0.09
     297.82     -0.01
     298.85      0.02
     299.88     -0.29
     300.91      0.00
     301.94     -0.08
     302.97     -0.05
     304.00     -0.08
     305.03     -0.03
     306.06      0.02
     307.10      0.01
     308.13     -0.01
     309.16      0.11
     310.19      0.08
     311.22      0.05
     312.25     -0.11
     313.28      0.08
     314.31     -0.06
     315.34      0.04
     316.37     -0.08
     317.40     -0.07
     318.43     -0.01
     319.46      0.08
     320.49     -0.14
     321.52     -0.09
     322.55     -0.03
     323.58     -0.08
     324.61     -0.30
     325.64     -0.05
     326.68     -0.09
     327.71     -0.04
     328.74     -0.12
     329.77     -0.04
     330.80      0.09
     331.83      0.11
     332.86      0.05
     333.89      0.16
     334.92     -0.07
     335.95      0.07
     336.98      0.00
     338.01     -0.01
     339.04     -0.09
     340.07      0.08
     341.10      0.05
     342.13      0.01
     343.16     -0.06
     344.19      0.12
     345.22     -0.03
     346.26     -0.05
     347.29     -0.02
     348.32     -0.01
     349.35      0.04
     350.38     -0.01
     351.41      0.11
     352.44      0.24
     353.47      0.07
     354.50     -0.06
     355.53      0.17
     356.56     -0.01
     357.59      0.01
     358.62      0.10
     359.65     -0.17
     360.68      0.05
     361.71      0.05
     362.74      0.02
     363.77     -0.15
     364.80      0.13
     365.84     -0.06
     366.87      0.01
     367.90      0.04
     368.93     -0.10
     369.96     -0.17
     370.99     -0.04
     372.02      0.10
     373.05     -0.03
     374.08      0.08
     375.11      0.07
     376.14     -0.06
     377.17      0.07
     378.20      0.04
     379.23      0.02
     380.26     -0.00
     381.29     -0.02
     382.32      0.03
     383.35      0.01
     384.38      0.17
     385.41     -0.01
     386.45      0.18
     387.48      0.15
     388.51      0.10
     389.54      0.27
     390.57     -0.14
     391.60     -0.17
     392.63      0.08
     393.66      0.32
     394.69      0.08
     395.72      0.24
     396.75      0.02
     397.78      0.17
     398.81      0.09
     399.84      0.13
   
