%%             75.00000             0.00000    0             0.27000
% LAB  survey ------------------
% wanted position:  l, b, RA, DEC, and interpolated  NH
% 75.00 ;   0.00 ; 305.23 ;  36.61 ;  0.922E+22
% nearest position: l, b, RA, DEC, and observed NH
% 75.00 ;   0.00 ; 305.23 ;  36.61 ;  0.922E+22
% GASS III survey --------------
% NH - median within 6 arcmin radius   0.00    
% NH - mean within specified beam      0.00    
%%GASS      0  datapoints: v_lsr [km/s] and T_B [K] for beam weighted average and median within 6 arcmin
%%LAB     777  datapoints: v_lsr [km/s] and T_B [K]
    -399.82     -0.08
    -398.79     -0.12
    -397.76     -0.08
    -396.73     -0.00
    -395.70      0.05
    -394.67      0.21
    -393.64      0.17
    -392.61      0.19
    -391.58      0.01
    -390.55      0.18
    -389.52     -0.03
    -388.49     -0.10
    -387.46     -0.10
    -386.43     -0.11
    -385.40     -0.10
    -384.36      0.03
    -383.33     -0.05
    -382.30      0.15
    -381.27      0.05
    -380.24      0.10
    -379.21     -0.00
    -378.18      0.03
    -377.15      0.12
    -376.12      0.04
    -375.09      0.05
    -374.06     -0.08
    -373.03      0.17
    -372.00     -0.18
    -370.97     -0.10
    -369.94     -0.01
    -368.91      0.03
    -367.88     -0.12
    -366.85      0.10
    -365.82     -0.04
    -364.79      0.17
    -363.76     -0.08
    -362.73     -0.09
    -361.69     -0.05
    -360.66     -0.08
    -359.63     -0.09
    -358.60      0.02
    -357.57      0.17
    -356.54      0.12
    -355.51      0.05
    -354.48      0.09
    -353.45      0.02
    -352.42      0.10
    -351.39     -0.14
    -350.36      0.10
    -349.33      0.02
    -348.30      0.03
    -347.27     -0.04
    -346.24     -0.03
    -345.21     -0.10
    -344.18     -0.09
    -343.15      0.16
    -342.12      0.06
    -341.09     -0.20
    -340.05      0.00
    -339.02     -0.11
    -337.99      0.07
    -336.96     -0.16
    -335.93     -0.00
    -334.90     -0.21
    -333.87      0.06
    -332.84     -0.07
    -331.81      0.18
    -330.78      0.00
    -329.75      0.10
    -328.72     -0.02
    -327.69      0.06
    -326.66      0.06
    -325.63     -0.01
    -324.60      0.04
    -323.57      0.06
    -322.54      0.03
    -321.51     -0.06
    -320.48     -0.05
    -319.45     -0.16
    -318.41      0.04
    -317.38      0.11
    -316.35      0.13
    -315.32     -0.03
    -314.29      0.10
    -313.26      0.08
    -312.23      0.02
    -311.20      0.12
    -310.17      0.07
    -309.14      0.01
    -308.11     -0.02
    -307.08     -0.03
    -306.05     -0.00
    -305.02      0.04
    -303.99      0.07
    -302.96      0.01
    -301.93      0.00
    -300.90     -0.15
    -299.87     -0.03
    -298.84     -0.07
    -297.81     -0.20
    -296.78      0.12
    -295.74      0.01
    -294.71     -0.01
    -293.68     -0.07
    -292.65     -0.14
    -291.62     -0.05
    -290.59     -0.04
    -289.56     -0.05
    -288.53     -0.02
    -287.50     -0.03
    -286.47      0.16
    -285.44      0.03
    -284.41     -0.03
    -283.38      0.18
    -282.35      0.03
    -281.32     -0.07
    -280.29      0.10
    -279.26      0.13
    -278.23     -0.04
    -277.20     -0.10
    -276.17      0.04
    -275.14     -0.07
    -274.10     -0.03
    -273.07     -0.07
    -272.04     -0.04
    -271.01      0.04
    -269.98     -0.18
    -268.95      0.09
    -267.92      0.18
    -266.89      0.00
    -265.86      0.09
    -264.83      0.16
    -263.80      0.03
    -262.77      0.14
    -261.74      0.08
    -260.71     -0.05
    -259.68     -0.03
    -258.65     -0.01
    -257.62     -0.04
    -256.59      0.09
    -255.56      0.01
    -254.53      0.01
    -253.50      0.05
    -252.46      0.08
    -251.43      0.12
    -250.40     -0.06
    -249.37      0.08
    -248.34     -0.03
    -247.31      0.12
    -246.28     -0.01
    -245.25     -0.02
    -244.22     -0.15
    -243.19     -0.09
    -242.16     -0.05
    -241.13      0.10
    -240.10      0.05
    -239.07     -0.08
    -238.04      0.07
    -237.01      0.00
    -235.98     -0.08
    -234.95     -0.11
    -233.92      0.05
    -232.89     -0.03
    -231.86     -0.06
    -230.83      0.11
    -229.79      0.01
    -228.76     -0.22
    -227.73     -0.03
    -226.70     -0.13
    -225.67     -0.07
    -224.64      0.05
    -223.61     -0.06
    -222.58      0.05
    -221.55     -0.03
    -220.52     -0.11
    -219.49     -0.09
    -218.46      0.07
    -217.43      0.09
    -216.40     -0.06
    -215.37      0.09
    -214.34      0.00
    -213.31      0.10
    -212.28      0.08
    -211.25      0.02
    -210.22     -0.02
    -209.19      0.11
    -208.15      0.07
    -207.12      0.01
    -206.09      0.04
    -205.06     -0.07
    -204.03     -0.03
    -203.00      0.08
    -201.97      0.18
    -200.94     -0.05
    -199.91      0.09
    -198.88      0.07
    -197.85      0.14
    -196.82     -0.08
    -195.79     -0.03
    -194.76     -0.03
    -193.73     -0.06
    -192.70     -0.06
    -191.67      0.07
    -190.64      0.02
    -189.61      0.07
    -188.58      0.13
    -187.55     -0.12
    -186.51     -0.09
    -185.48      0.03
    -184.45     -0.00
    -183.42     -0.02
    -182.39      0.03
    -181.36      0.03
    -180.33     -0.02
    -179.30      0.03
    -178.27      0.17
    -177.24     -0.15
    -176.21      0.08
    -175.18     -0.11
    -174.15     -0.04
    -173.12      0.12
    -172.09     -0.07
    -171.06     -0.06
    -170.03     -0.02
    -169.00      0.01
    -167.97      0.12
    -166.94      0.09
    -165.91      0.11
    -164.88      0.03
    -163.84      0.01
    -162.81     -0.01
    -161.78     -0.03
    -160.75     -0.04
    -159.72      0.11
    -158.69      0.07
    -157.66      0.01
    -156.63      0.02
    -155.60     -0.03
    -154.57      0.05
    -153.54      0.02
    -152.51      0.15
    -151.48      0.01
    -150.45      0.12
    -149.42      0.07
    -148.39      0.07
    -147.36      0.17
    -146.33      0.08
    -145.30      0.18
    -144.27      0.24
    -143.24      0.18
    -142.20      0.47
    -141.17      0.32
    -140.14      0.49
    -139.11      0.35
    -138.08      0.66
    -137.05      0.66
    -136.02      0.96
    -134.99      1.18
    -133.96      1.32
    -132.93      1.58
    -131.90      1.91
    -130.87      1.95
    -129.84      2.07
    -128.81      2.05
    -127.78      1.97
    -126.75      1.95
    -125.72      1.73
    -124.69      1.28
    -123.66      1.06
    -122.63      0.77
    -121.60      0.80
    -120.56      0.72
    -119.53      0.64
    -118.50      0.61
    -117.47      0.41
    -116.44      0.47
    -115.41      0.46
    -114.38      0.50
    -113.35      0.46
    -112.32      0.59
    -111.29      0.53
    -110.26      0.31
    -109.23      0.58
    -108.20      0.54
    -107.17      0.67
    -106.14      0.57
    -105.11      0.82
    -104.08      0.76
    -103.05      0.91
    -102.02      0.88
    -100.99      1.20
     -99.96      1.25
     -98.93      1.64
     -97.89      1.76
     -96.86      2.40
     -95.83      2.68
     -94.80      3.37
     -93.77      3.97
     -92.74      4.48
     -91.71      5.47
     -90.68      6.60
     -89.65      7.50
     -88.62      8.73
     -87.59      9.73
     -86.56     11.42
     -85.53     12.78
     -84.50     14.10
     -83.47     15.80
     -82.44     17.62
     -81.41     19.43
     -80.38     22.08
     -79.35     24.44
     -78.32     27.25
     -77.29     30.29
     -76.25     32.73
     -75.22     33.88
     -74.19     34.34
     -73.16     33.75
     -72.13     33.55
     -71.10     32.31
     -70.07     31.80
     -69.04     31.02
     -68.01     29.95
     -66.98     29.59
     -65.95     29.34
     -64.92     29.43
     -63.89     30.44
     -62.86     31.81
     -61.83     32.85
     -60.80     33.65
     -59.77     33.43
     -58.74     32.13
     -57.71     30.44
     -56.68     28.46
     -55.65     26.47
     -54.61     24.07
     -53.58     21.89
     -52.55     19.10
     -51.52     17.04
     -50.49     15.53
     -49.46     14.98
     -48.43     15.09
     -47.40     16.41
     -46.37     18.70
     -45.34     21.03
     -44.31     22.98
     -43.28     23.94
     -42.25     24.66
     -41.22     25.34
     -40.19     24.94
     -39.16     23.86
     -38.13     21.65
     -37.10     19.61
     -36.07     17.70
     -35.04     17.96
     -34.01     19.61
     -32.98     22.58
     -31.94     27.14
     -30.91     31.75
     -29.88     37.34
     -28.85     43.09
     -27.82     48.53
     -26.79     52.69
     -25.76     54.33
     -24.73     53.29
     -23.70     51.53
     -22.67     50.75
     -21.64     53.01
     -20.61     56.20
     -19.58     58.40
     -18.55     58.12
     -17.52     56.08
     -16.49     52.93
     -15.46     50.01
     -14.43     48.22
     -13.40     48.67
     -12.37     52.63
     -11.34     58.59
     -10.30     65.78
      -9.27     70.74
      -8.24     73.27
      -7.21     77.11
      -6.18     84.16
      -5.15     93.42
      -4.12    101.90
      -3.09    108.19
      -2.06    112.41
      -1.03    115.40
       0.00    117.79
       1.03    119.26
       2.06    117.60
       3.09    114.91
       4.12    113.25
       5.15    112.75
       6.18    109.49
       7.21    107.55
       8.24    103.78
       9.27     93.53
      10.30     80.51
      11.34     67.87
      12.37     58.33
      13.40     48.90
      14.43     39.38
      15.46     30.79
      16.49     23.97
      17.52     18.27
      18.55     13.96
      19.58     10.91
      20.61      8.53
      21.64      6.86
      22.67      5.63
      23.70      4.48
      24.73      3.75
      25.76      2.83
      26.79      2.69
      27.82      2.11
      28.85      1.75
      29.88      1.55
      30.91      1.18
      31.94      1.12
      32.98      1.11
      34.01      0.71
      35.04      0.80
      36.07      0.66
      37.10      0.58
      38.13      0.43
      39.16      0.60
      40.19      0.53
      41.22      0.47
      42.25      0.40
      43.28      0.37
      44.31      0.17
      45.34      0.25
      46.37      0.12
      47.40      0.12
      48.43      0.13
      49.46      0.07
      50.49      0.08
      51.52      0.17
      52.55      0.05
      53.58      0.09
      54.61      0.02
      55.65     -0.04
      56.68      0.05
      57.71      0.14
      58.74      0.03
      59.77      0.06
      60.80      0.02
      61.83      0.04
      62.86      0.11
      63.89      0.18
      64.92      0.06
      65.95      0.22
      66.98     -0.05
      68.01      0.06
      69.04     -0.05
      70.07      0.02
      71.10      0.11
      72.13     -0.03
      73.16     -0.04
      74.19      0.00
      75.22      0.03
      76.25      0.02
      77.29      0.10
      78.32      0.09
      79.35      0.01
      80.38     -0.03
      81.41     -0.09
      82.44     -0.08
      83.47      0.01
      84.50      0.07
      85.53     -0.02
      86.56     -0.01
      87.59     -0.03
      88.62      0.07
      89.65     -0.17
      90.68     -0.06
      91.71      0.06
      92.74     -0.09
      93.77     -0.03
      94.80      0.05
      95.83     -0.05
      96.86      0.16
      97.89      0.03
      98.93      0.02
      99.96     -0.05
     100.99     -0.03
     102.02     -0.05
     103.05      0.09
     104.08     -0.05
     105.11      0.08
     106.14     -0.02
     107.17      0.07
     108.20     -0.05
     109.23      0.08
     110.26      0.02
     111.29     -0.04
     112.32     -0.17
     113.35      0.04
     114.38      0.01
     115.41      0.12
     116.44      0.02
     117.47      0.14
     118.50     -0.12
     119.53      0.00
     120.56      0.00
     121.60      0.07
     122.63      0.10
     123.66     -0.12
     124.69      0.02
     125.72     -0.03
     126.75     -0.09
     127.78      0.10
     128.81     -0.09
     129.84     -0.03
     130.87      0.20
     131.90      0.01
     132.93     -0.07
     133.96     -0.04
     134.99      0.02
     136.02     -0.03
     137.05     -0.02
     138.08      0.01
     139.11     -0.03
     140.14      0.26
     141.17     -0.20
     142.20     -0.09
     143.24     -0.05
     144.27     -0.02
     145.30     -0.03
     146.33      0.06
     147.36     -0.08
     148.39     -0.03
     149.42     -0.01
     150.45     -0.05
     151.48     -0.10
     152.51     -0.10
     153.54      0.10
     154.57     -0.00
     155.60      0.05
     156.63     -0.02
     157.66     -0.11
     158.69      0.01
     159.72     -0.09
     160.75      0.13
     161.78     -0.11
     162.81      0.07
     163.84      0.06
     164.88     -0.06
     165.91      0.08
     166.94      0.08
     167.97     -0.07
     169.00      0.16
     170.03     -0.03
     171.06      0.02
     172.09      0.07
     173.12      0.03
     174.15      0.04
     175.18      0.23
     176.21     -0.08
     177.24     -0.11
     178.27      0.09
     179.30      0.14
     180.33      0.15
     181.36      0.01
     182.39     -0.09
     183.42      0.02
     184.45     -0.14
     185.48      0.09
     186.51      0.01
     187.55      0.07
     188.58      0.03
     189.61     -0.04
     190.64     -0.02
     191.67     -0.05
     192.70      0.05
     193.73      0.00
     194.76     -0.15
     195.79     -0.06
     196.82     -0.00
     197.85      0.01
     198.88      0.02
     199.91      0.07
     200.94      0.10
     201.97      0.08
     203.00      0.05
     204.03      0.07
     205.06      0.05
     206.09     -0.06
     207.12     -0.09
     208.15      0.16
     209.19      0.12
     210.22      0.09
     211.25     -0.14
     212.28      0.01
     213.31      0.01
     214.34      0.06
     215.37      0.05
     216.40      0.09
     217.43     -0.01
     218.46     -0.11
     219.49      0.13
     220.52      0.10
     221.55     -0.24
     222.58      0.05
     223.61      0.09
     224.64      0.12
     225.67     -0.02
     226.70     -0.08
     227.73     -0.08
     228.76      0.06
     229.79      0.01
     230.83     -0.02
     231.86      0.07
     232.89     -0.05
     233.92     -0.12
     234.95     -0.03
     235.98     -0.02
     237.01     -0.05
     238.04     -0.28
     239.07     -0.14
     240.10      0.00
     241.13      0.02
     242.16      0.05
     243.19      0.07
     244.22      0.01
     245.25      0.01
     246.28      0.03
     247.31      0.19
     248.34      0.01
     249.37     -0.07
     250.40     -0.04
     251.43     -0.03
     252.46      0.01
     253.50      0.07
     254.53     -0.01
     255.56      0.03
     256.59     -0.11
     257.62     -0.04
     258.65     -0.08
     259.68      0.08
     260.71     -0.06
     261.74      0.16
     262.77     -0.02
     263.80      0.05
     264.83     -0.03
     265.86      0.11
     266.89      0.01
     267.92      0.03
     268.95     -0.04
     269.98      0.00
     271.01      0.07
     272.04     -0.08
     273.07     -0.08
     274.10     -0.13
     275.14      0.12
     276.17      0.10
     277.20      0.02
     278.23     -0.04
     279.26      0.09
     280.29      0.12
     281.32      0.00
     282.35     -0.07
     283.38     -0.11
     284.41     -0.03
     285.44      0.01
     286.47      0.02
     287.50      0.04
     288.53     -0.05
     289.56      0.04
     290.59      0.12
     291.62     -0.08
     292.65     -0.12
     293.68     -0.15
     294.71     -0.04
     295.74     -0.10
     296.78      0.18
     297.81      0.04
     298.84      0.05
     299.87      0.13
     300.90      0.03
     301.93     -0.01
     302.96     -0.04
     303.99      0.12
     305.02      0.05
     306.05     -0.06
     307.08     -0.03
     308.11     -0.06
     309.14     -0.08
     310.17     -0.12
     311.20     -0.04
     312.23     -0.05
     313.26      0.04
     314.29     -0.10
     315.32     -0.17
     316.35     -0.19
     317.38      0.06
     318.41      0.02
     319.45      0.05
     320.48     -0.15
     321.51     -0.12
     322.54      0.18
     323.57     -0.03
     324.60     -0.20
     325.63      0.01
     326.66     -0.11
     327.69      0.05
     328.72      0.09
     329.75     -0.02
     330.78      0.05
     331.81     -0.07
     332.84      0.06
     333.87      0.07
     334.90     -0.04
     335.93     -0.08
     336.96     -0.04
     337.99     -0.01
     339.02     -0.05
     340.05      0.06
     341.09     -0.14
     342.12     -0.09
     343.15      0.05
     344.18      0.03
     345.21     -0.03
     346.24      0.05
     347.27      0.22
     348.30      0.12
     349.33      0.00
     350.36     -0.02
     351.39      0.10
     352.42      0.04
     353.45      0.10
     354.48      0.16
     355.51     -0.11
     356.54      0.03
     357.57     -0.13
     358.60      0.05
     359.63      0.01
     360.66      0.02
     361.69     -0.02
     362.73     -0.11
     363.76      0.05
     364.79     -0.09
     365.82      0.24
     366.85      0.04
     367.88     -0.09
     368.91     -0.03
     369.94     -0.08
     370.97      0.03
     372.00     -0.07
     373.03      0.13
     374.06      0.06
     375.09     -0.06
     376.12      0.01
     377.15      0.07
     378.18     -0.14
     379.21      0.07
     380.24      0.11
     381.27      0.16
     382.30     -0.00
     383.33      0.22
     384.36      0.07
     385.40      0.06
     386.43     -0.09
     387.46     -0.05
     388.49     -0.07
     389.52     -0.11
     390.55      0.17
     391.58     -0.03
     392.61     -0.04
     393.64      0.15
     394.67      0.01
     395.70     -0.04
     396.73     -0.07
     397.76      0.07
     398.79     -0.03
     399.82      0.16
   
