%%             55.00000             0.00000    0             0.27000
% LAB  survey ------------------
% wanted position:  l, b, RA, DEC, and interpolated  NH
% 55.00 ;   0.00 ; 293.33 ;  19.53 ;  0.108E+23
% nearest position: l, b, RA, DEC, and observed NH
% 55.00 ;   0.00 ; 293.33 ;  19.53 ;  0.108E+23
% GASS III survey --------------
% NH - median within 6 arcmin radius   0.00    
% NH - mean within specified beam      0.00    
%%GASS      0  datapoints: v_lsr [km/s] and T_B [K] for beam weighted average and median within 6 arcmin
%%LAB     777  datapoints: v_lsr [km/s] and T_B [K]
    -399.86     -0.01
    -398.83      0.04
    -397.80      0.02
    -396.77      0.06
    -395.74      0.12
    -394.71     -0.10
    -393.68      0.04
    -392.65      0.06
    -391.62      0.05
    -390.59     -0.16
    -389.56      0.17
    -388.52      0.08
    -387.49      0.03
    -386.46     -0.02
    -385.43     -0.15
    -384.40     -0.05
    -383.37      0.00
    -382.34      0.01
    -381.31     -0.12
    -380.28      0.01
    -379.25     -0.01
    -378.22     -0.01
    -377.19      0.02
    -376.16      0.05
    -375.13     -0.11
    -374.10     -0.17
    -373.07      0.07
    -372.04      0.12
    -371.00     -0.17
    -369.97      0.03
    -368.94      0.13
    -367.91      0.12
    -366.88     -0.04
    -365.85     -0.23
    -364.82      0.07
    -363.79      0.00
    -362.76      0.03
    -361.73      0.10
    -360.70     -0.14
    -359.67      0.15
    -358.64      0.13
    -357.61      0.05
    -356.58      0.05
    -355.55     -0.12
    -354.52     -0.04
    -353.49     -0.02
    -352.45     -0.05
    -351.42      0.02
    -350.39      0.04
    -349.36     -0.08
    -348.33     -0.11
    -347.30     -0.06
    -346.27      0.05
    -345.24      0.01
    -344.21     -0.09
    -343.18     -0.07
    -342.15      0.05
    -341.12      0.03
    -340.09      0.07
    -339.06      0.10
    -338.03      0.12
    -337.00      0.06
    -335.97      0.30
    -334.93     -0.01
    -333.90      0.08
    -332.87     -0.17
    -331.84     -0.08
    -330.81      0.08
    -329.78     -0.05
    -328.75     -0.10
    -327.72      0.28
    -326.69     -0.03
    -325.66      0.12
    -324.63     -0.10
    -323.60      0.11
    -322.57      0.14
    -321.54     -0.01
    -320.51     -0.14
    -319.48     -0.10
    -318.45     -0.04
    -317.42      0.00
    -316.38     -0.22
    -315.35     -0.06
    -314.32     -0.23
    -313.29      0.07
    -312.26     -0.01
    -311.23      0.07
    -310.20     -0.16
    -309.17     -0.01
    -308.14     -0.04
    -307.11      0.11
    -306.08     -0.02
    -305.05      0.27
    -304.02      0.05
    -302.99      0.13
    -301.96     -0.13
    -300.93      0.08
    -299.90     -0.16
    -298.87      0.16
    -297.83     -0.01
    -296.80      0.18
    -295.77     -0.02
    -294.74     -0.14
    -293.71     -0.25
    -292.68      0.05
    -291.65     -0.00
    -290.62     -0.02
    -289.59      0.05
    -288.56      0.01
    -287.53      0.23
    -286.50      0.01
    -285.47      0.09
    -284.44     -0.05
    -283.41      0.02
    -282.38      0.10
    -281.35     -0.00
    -280.31      0.08
    -279.28      0.00
    -278.25     -0.14
    -277.22     -0.07
    -276.19     -0.01
    -275.16     -0.05
    -274.13     -0.11
    -273.10     -0.00
    -272.07      0.07
    -271.04      0.12
    -270.01     -0.04
    -268.98      0.01
    -267.95      0.12
    -266.92     -0.14
    -265.89      0.16
    -264.86      0.04
    -263.83     -0.04
    -262.80     -0.04
    -261.76      0.20
    -260.73     -0.03
    -259.70     -0.09
    -258.67      0.06
    -257.64      0.06
    -256.61      0.03
    -255.58      0.11
    -254.55     -0.06
    -253.52      0.00
    -252.49     -0.12
    -251.46      0.05
    -250.43     -0.16
    -249.40      0.05
    -248.37      0.00
    -247.34      0.05
    -246.31     -0.23
    -245.28      0.00
    -244.24      0.02
    -243.21      0.09
    -242.18     -0.04
    -241.15      0.09
    -240.12     -0.05
    -239.09      0.04
    -238.06     -0.00
    -237.03      0.11
    -236.00     -0.01
    -234.97      0.21
    -233.94     -0.01
    -232.91     -0.00
    -231.88     -0.22
    -230.85      0.06
    -229.82     -0.02
    -228.79      0.00
    -227.76      0.03
    -226.73      0.06
    -225.69      0.10
    -224.66     -0.06
    -223.63     -0.13
    -222.60      0.02
    -221.57     -0.10
    -220.54      0.01
    -219.51     -0.01
    -218.48      0.02
    -217.45      0.08
    -216.42     -0.03
    -215.39      0.05
    -214.36      0.13
    -213.33      0.09
    -212.30     -0.04
    -211.27     -0.06
    -210.24      0.09
    -209.21     -0.02
    -208.17      0.12
    -207.14     -0.08
    -206.11      0.11
    -205.08     -0.08
    -204.05     -0.03
    -203.02      0.09
    -201.99     -0.05
    -200.96      0.05
    -199.93     -0.03
    -198.90     -0.11
    -197.87     -0.02
    -196.84     -0.13
    -195.81     -0.02
    -194.78     -0.11
    -193.75     -0.05
    -192.72     -0.03
    -191.69     -0.08
    -190.66      0.05
    -189.62     -0.00
    -188.59      0.02
    -187.56      0.07
    -186.53     -0.13
    -185.50      0.13
    -184.47     -0.16
    -183.44     -0.08
    -182.41     -0.08
    -181.38     -0.01
    -180.35     -0.01
    -179.32     -0.04
    -178.29      0.04
    -177.26      0.05
    -176.23     -0.10
    -175.20      0.06
    -174.17     -0.02
    -173.14      0.10
    -172.11      0.09
    -171.07      0.01
    -170.04     -0.02
    -169.01     -0.02
    -167.98     -0.01
    -166.95     -0.10
    -165.92      0.22
    -164.89      0.03
    -163.86     -0.08
    -162.83      0.12
    -161.80     -0.02
    -160.77     -0.03
    -159.74      0.12
    -158.71      0.15
    -157.68     -0.06
    -156.65     -0.11
    -155.62      0.20
    -154.59     -0.00
    -153.55     -0.00
    -152.52      0.04
    -151.49      0.04
    -150.46     -0.10
    -149.43      0.14
    -148.40      0.07
    -147.37     -0.02
    -146.34     -0.07
    -145.31      0.06
    -144.28      0.10
    -143.25      0.16
    -142.22      0.08
    -141.19     -0.02
    -140.16      0.08
    -139.13      0.08
    -138.10      0.01
    -137.07      0.03
    -136.04     -0.07
    -135.00     -0.08
    -133.97      0.10
    -132.94      0.13
    -131.91      0.20
    -130.88      0.08
    -129.85      0.03
    -128.82      0.15
    -127.79      0.16
    -126.76      0.09
    -125.73     -0.10
    -124.70      0.17
    -123.67      0.08
    -122.64      0.20
    -121.61      0.01
    -120.58     -0.04
    -119.55     -0.05
    -118.52      0.07
    -117.48      0.14
    -116.45      0.02
    -115.42     -0.07
    -114.39      0.14
    -113.36     -0.02
    -112.33      0.07
    -111.30     -0.09
    -110.27     -0.02
    -109.24     -0.00
    -108.21      0.06
    -107.18      0.28
    -106.15      0.20
    -105.12      0.12
    -104.09      0.20
    -103.06      0.17
    -102.03      0.18
    -101.00      0.13
     -99.97      0.14
     -98.93      0.09
     -97.90      0.10
     -96.87      0.34
     -95.84      0.44
     -94.81      0.40
     -93.78      0.51
     -92.75      0.60
     -91.72      0.66
     -90.69      0.90
     -89.66      0.88
     -88.63      1.11
     -87.60      1.59
     -86.57      1.75
     -85.54      2.00
     -84.51      2.09
     -83.48      2.51
     -82.45      2.67
     -81.41      3.01
     -80.38      3.34
     -79.35      3.60
     -78.32      3.90
     -77.29      4.21
     -76.26      4.68
     -75.23      4.91
     -74.20      5.50
     -73.17      6.21
     -72.14      7.18
     -71.11      8.05
     -70.08      9.38
     -69.05     11.08
     -68.02     13.23
     -66.99     15.33
     -65.96     18.79
     -64.93     22.87
     -63.90     27.80
     -62.86     32.68
     -61.83     37.68
     -60.80     41.70
     -59.77     45.40
     -58.74     47.70
     -57.71     48.21
     -56.68     46.73
     -55.65     42.94
     -54.62     37.50
     -53.59     31.20
     -52.56     26.24
     -51.53     22.33
     -50.50     19.78
     -49.47     18.68
     -48.44     18.76
     -47.41     20.00
     -46.38     21.87
     -45.35     24.26
     -44.31     26.23
     -43.28     27.13
     -42.25     27.18
     -41.22     26.51
     -40.19     25.55
     -39.16     24.47
     -38.13     23.37
     -37.10     22.28
     -36.07     20.52
     -35.04     19.51
     -34.01     18.74
     -32.98     17.51
     -31.95     15.60
     -30.92     13.77
     -29.89     12.12
     -28.86     10.35
     -27.83      9.17
     -26.79      8.33
     -25.76      7.78
     -24.73      7.51
     -23.70      6.99
     -22.67      6.90
     -21.64      6.57
     -20.61      6.26
     -19.58      5.96
     -18.55      5.62
     -17.52      5.13
     -16.49      5.14
     -15.46      5.44
     -14.43      6.70
     -13.40      8.67
     -12.37     11.82
     -11.34     16.19
     -10.31     22.18
      -9.28     28.66
      -8.24     34.26
      -7.21     39.10
      -6.18     41.75
      -5.15     43.15
      -4.12     44.63
      -3.09     45.05
      -2.06     45.74
      -1.03     46.25
       0.00     47.78
       1.03     50.05
       2.06     52.57
       3.09     54.68
       4.12     56.09
       5.15     58.50
       6.18     64.78
       7.21     73.40
       8.24     80.78
       9.28     84.92
      10.31     85.39
      11.34     82.68
      12.37     77.01
      13.40     69.35
      14.43     62.37
      15.46     58.91
      16.49     57.93
      17.52     57.43
      18.55     57.78
      19.58     58.57
      20.61     60.80
      21.64     65.48
      22.67     69.95
      23.70     72.30
      24.73     73.06
      25.76     76.39
      26.79     81.53
      27.83     85.91
      28.86     91.26
      29.89     97.41
      30.92    103.46
      31.95    107.24
      32.98    109.90
      34.01    110.84
      35.04    109.81
      36.07    107.75
      37.10    107.03
      38.13    108.23
      39.16    110.39
      40.19    112.51
      41.22    110.80
      42.25    105.45
      43.28     98.30
      44.31     89.91
      45.35     79.81
      46.38     70.24
      47.41     61.83
      48.44     54.21
      49.47     47.38
      50.50     41.63
      51.53     36.07
      52.56     31.58
      53.59     27.19
      54.62     22.96
      55.65     19.20
      56.68     15.75
      57.71     13.19
      58.74     10.93
      59.77      8.93
      60.80      6.53
      61.83      4.84
      62.86      3.45
      63.90      2.24
      64.93      1.63
      65.96      1.43
      66.99      1.03
      68.02      0.62
      69.05      0.70
      70.08      0.39
      71.11      0.46
      72.14      0.33
      73.17      0.18
      74.20      0.38
      75.23      0.17
      76.26      0.25
      77.29      0.25
      78.32      0.30
      79.35      0.06
      80.38      0.11
      81.41      0.03
      82.45      0.03
      83.48     -0.02
      84.51      0.14
      85.54      0.07
      86.57      0.05
      87.60      0.15
      88.63      0.14
      89.66      0.18
      90.69      0.12
      91.72      0.06
      92.75      0.09
      93.78      0.01
      94.81     -0.01
      95.84     -0.06
      96.87     -0.05
      97.90      0.07
      98.93      0.04
      99.97     -0.13
     101.00     -0.07
     102.03      0.05
     103.06     -0.01
     104.09     -0.14
     105.12     -0.00
     106.15      0.03
     107.18     -0.08
     108.21     -0.05
     109.24      0.12
     110.27      0.05
     111.30      0.09
     112.33      0.10
     113.36     -0.05
     114.39      0.01
     115.42      0.01
     116.45     -0.17
     117.48      0.18
     118.52     -0.05
     119.55      0.00
     120.58      0.10
     121.61      0.18
     122.64     -0.04
     123.67      0.02
     124.70     -0.10
     125.73     -0.10
     126.76     -0.05
     127.79     -0.04
     128.82      0.04
     129.85      0.16
     130.88     -0.06
     131.91      0.19
     132.94     -0.01
     133.97      0.03
     135.00      0.05
     136.04      0.06
     137.07     -0.22
     138.10     -0.03
     139.13     -0.16
     140.16      0.04
     141.19     -0.11
     142.22     -0.02
     143.25     -0.18
     144.28      0.02
     145.31      0.04
     146.34     -0.07
     147.37     -0.03
     148.40     -0.09
     149.43     -0.07
     150.46     -0.04
     151.49     -0.02
     152.52      0.09
     153.55      0.10
     154.59      0.11
     155.62      0.05
     156.65      0.07
     157.68     -0.02
     158.71     -0.10
     159.74     -0.06
     160.77      0.12
     161.80     -0.02
     162.83     -0.00
     163.86     -0.02
     164.89      0.03
     165.92     -0.02
     166.95     -0.06
     167.98     -0.19
     169.01      0.10
     170.04     -0.25
     171.07      0.04
     172.11     -0.01
     173.14     -0.06
     174.17      0.07
     175.20      0.18
     176.23     -0.02
     177.26      0.08
     178.29      0.05
     179.32     -0.01
     180.35     -0.03
     181.38      0.22
     182.41     -0.09
     183.44      0.07
     184.47     -0.06
     185.50      0.25
     186.53      0.08
     187.56      0.07
     188.59     -0.11
     189.62      0.04
     190.66     -0.01
     191.69      0.06
     192.72      0.14
     193.75     -0.04
     194.78      0.16
     195.81      0.03
     196.84      0.13
     197.87     -0.01
     198.90      0.09
     199.93     -0.18
     200.96      0.04
     201.99      0.07
     203.02     -0.03
     204.05     -0.07
     205.08     -0.04
     206.11      0.24
     207.14     -0.06
     208.17      0.07
     209.21      0.01
     210.24     -0.07
     211.27     -0.08
     212.30     -0.07
     213.33     -0.07
     214.36     -0.01
     215.39      0.11
     216.42      0.05
     217.45      0.01
     218.48     -0.01
     219.51      0.10
     220.54     -0.12
     221.57     -0.02
     222.60     -0.12
     223.63     -0.02
     224.66     -0.13
     225.69     -0.23
     226.73      0.06
     227.76     -0.22
     228.79     -0.03
     229.82      0.16
     230.85      0.06
     231.88     -0.14
     232.91      0.08
     233.94     -0.05
     234.97     -0.07
     236.00     -0.12
     237.03      0.17
     238.06     -0.02
     239.09      0.12
     240.12      0.16
     241.15      0.02
     242.18      0.04
     243.21      0.04
     244.24     -0.17
     245.28     -0.02
     246.31      0.06
     247.34      0.06
     248.37     -0.03
     249.40     -0.02
     250.43     -0.07
     251.46     -0.04
     252.49     -0.02
     253.52      0.04
     254.55      0.00
     255.58     -0.03
     256.61     -0.03
     257.64      0.01
     258.67      0.05
     259.70      0.02
     260.73     -0.11
     261.76     -0.08
     262.80      0.05
     263.83      0.05
     264.86     -0.08
     265.89      0.04
     266.92      0.12
     267.95      0.00
     268.98     -0.11
     270.01      0.11
     271.04     -0.15
     272.07      0.04
     273.10      0.12
     274.13     -0.02
     275.16     -0.16
     276.19      0.02
     277.22     -0.03
     278.25      0.17
     279.28     -0.00
     280.31      0.16
     281.35     -0.07
     282.38      0.18
     283.41     -0.10
     284.44      0.01
     285.47     -0.05
     286.50      0.09
     287.53     -0.01
     288.56      0.04
     289.59     -0.13
     290.62      0.09
     291.65      0.01
     292.68     -0.08
     293.71      0.19
     294.74      0.04
     295.77      0.11
     296.80     -0.05
     297.83      0.00
     298.87     -0.02
     299.90      0.10
     300.93     -0.10
     301.96      0.02
     302.99      0.02
     304.02     -0.07
     305.05     -0.07
     306.08     -0.04
     307.11      0.10
     308.14     -0.15
     309.17      0.01
     310.20      0.10
     311.23      0.16
     312.26     -0.10
     313.29      0.04
     314.32     -0.19
     315.35     -0.07
     316.38      0.08
     317.42      0.14
     318.45      0.04
     319.48      0.00
     320.51      0.06
     321.54      0.13
     322.57     -0.05
     323.60     -0.07
     324.63      0.00
     325.66      0.14
     326.69     -0.01
     327.72      0.07
     328.75     -0.04
     329.78      0.01
     330.81     -0.10
     331.84      0.05
     332.87     -0.02
     333.90      0.02
     334.93     -0.08
     335.97      0.04
     337.00     -0.02
     338.03      0.08
     339.06      0.02
     340.09      0.00
     341.12      0.04
     342.15     -0.00
     343.18      0.03
     344.21      0.04
     345.24      0.01
     346.27      0.21
     347.30     -0.07
     348.33     -0.06
     349.36      0.08
     350.39     -0.10
     351.42     -0.09
     352.45     -0.02
     353.49      0.08
     354.52      0.06
     355.55     -0.02
     356.58      0.13
     357.61     -0.18
     358.64     -0.12
     359.67     -0.23
     360.70     -0.10
     361.73     -0.06
     362.76      0.03
     363.79     -0.17
     364.82     -0.05
     365.85      0.12
     366.88     -0.04
     367.91      0.04
     368.94      0.14
     369.97     -0.01
     371.00      0.10
     372.04      0.08
     373.07      0.02
     374.10      0.06
     375.13      0.05
     376.16     -0.02
     377.19      0.00
     378.22     -0.10
     379.25     -0.21
     380.28     -0.15
     381.31     -0.03
     382.34     -0.07
     383.37     -0.02
     384.40     -0.10
     385.43      0.06
     386.46     -0.05
     387.49     -0.07
     388.52     -0.01
     389.56     -0.05
     390.59     -0.05
     391.62      0.01
     392.65     -0.09
     393.68     -0.23
     394.71     -0.13
     395.74     -0.01
     396.77      0.11
     397.80      0.12
     398.83     -0.21
     399.86     -0.06
   
